# Reference Number = 2408 Incident Particle: neutron  imodel=1 Target: Z= 94 A= 239 Ef = -6.090
# En(MeV) DWV/w        DWVsym/w       DW>/w         DW</w            w         DWS/wd           wd         DWvso/wso       wso
  0.001  14.65367      13.28824      1.830014     -.4645818     0.7056081E-01  1.409886      2.548397      26.26783     -.4486258E-02
  0.002  14.65127      13.28606      1.829718     -.4645060     0.7058385E-01  1.409628      2.549019      26.26352     -.4487729E-02
  0.003  14.64887      13.28388      1.829421     -.4644303     0.7060689E-01  1.409371      2.549640      26.25921     -.4489200E-02
  0.004  14.64647      13.28170      1.829125     -.4643546     0.7062994E-01  1.409113      2.550261      26.25490     -.4490672E-02
  0.005  14.64407      13.27952      1.828829     -.4642789     0.7065299E-01  1.408856      2.550882      26.25059     -.4492143E-02
  0.006  14.64167      13.27734      1.828533     -.4642032     0.7067605E-01  1.408599      2.551503      26.24629     -.4493615E-02
  0.007  14.63927      13.27516      1.828237     -.4641275     0.7069910E-01  1.408342      2.552124      26.24198     -.4495088E-02
  0.008  14.63688      13.27299      1.827941     -.4640519     0.7072217E-01  1.408085      2.552745      26.23768     -.4496560E-02
  0.009  14.63448      13.27081      1.827646     -.4639763     0.7074523E-01  1.407828      2.553366      26.23338     -.4498033E-02
  0.010  14.63208      13.26863      1.827350     -.4639007     0.7076830E-01  1.407571      2.553987      26.22908     -.4499506E-02
  0.020  14.60817      13.24692      1.824399     -.4631463     0.7099920E-01  1.405006      2.560198      26.18615     -.4514249E-02
  0.030  14.58434      13.22527      1.821458     -.4623944     0.7123047E-01  1.402449      2.566408      26.14336     -.4529016E-02
  0.040  14.56058      13.20370      1.818526     -.4616450     0.7146210E-01  1.399900      2.572617      26.10072     -.4543806E-02
  0.050  14.53690      13.18220      1.815604     -.4608980     0.7169411E-01  1.397359      2.578827      26.05821     -.4558621E-02
  0.060  14.51330      13.16076      1.812691     -.4601534     0.7192649E-01  1.394826      2.585036      26.01584     -.4573460E-02
  0.070  14.48977      13.13940      1.809788     -.4594113     0.7215923E-01  1.392300      2.591244      25.97360     -.4588323E-02
  0.080  14.46633      13.11810      1.806895     -.4586716     0.7239235E-01  1.389782      2.597452      25.93151     -.4603210E-02
  0.090  14.44295      13.09688      1.804011     -.4579343     0.7262583E-01  1.387271      2.603660      25.88955     -.4618121E-02
  0.100  14.41965      13.07572      1.801136     -.4571994     0.7285968E-01  1.384768      2.609867      25.84772     -.4633056E-02
  0.200  14.19075      12.86784      1.772894     -.4499798     0.7521852E-01  1.360149      2.671903      25.43680     -.4783724E-02
  0.300  13.96902      12.66647      1.745542     -.4429874     0.7761425E-01  1.336250      2.733859      25.03873     -.4936792E-02
  0.400  13.75413      12.47130      1.719038     -.4362118     0.8004682E-01  1.313038      2.795712      24.65293     -.5092259E-02
  0.500  13.54576      12.28206      1.693343     -.4296431     0.8251619E-01  1.290482      2.857437      24.27884     -.5250124E-02
  0.600  13.34362      12.09847      1.668421     -.4232721     0.8502232E-01  1.268553      2.919013      23.91594     -.5410387E-02
  0.700  13.14744      11.92030      1.644239     -.4170900     0.8756515E-01  1.247224      2.980416      23.56372     -.5573046E-02
  0.800  12.95696      11.74729      1.620763     -.4110886     0.9014466E-01  1.226468      3.041627      23.22172     -.5738101E-02
  0.900  12.77194      11.57923      1.597964     -.4052602     0.9276078E-01  1.206261      3.102624      22.88952     -.5905550E-02
  1.000  12.59213      11.41592      1.575813     -.3995973     0.9541347E-01  1.186581      3.163388      22.56668     -.6075394E-02
  1.100  12.41734      11.25715      1.554283     -.3940932     0.9810268E-01  1.167405      3.223900      22.25282     -.6247632E-02
  1.200  12.24734      11.10273      1.533348     -.3887412     0.1008284      1.148713      3.284142      21.94757     -.6422262E-02
  1.300  12.08194      10.95249      1.512985     -.3835352     0.1035905      1.130485      3.344096      21.65059     -.6599285E-02
  1.400  11.92096      10.80626      1.493169     -.3784694     0.1063890      1.112704      3.403747      21.36153     -.6778698E-02
  1.500  11.76423      10.66389      1.473881     -.3735381     0.1092238      1.095350      3.463077      21.08009     -.6960501E-02
  1.600  11.61158      10.52522      1.455098     -.3687363     0.1120949      1.078409      3.522071      20.80597     -.7144694E-02
  1.700  11.46285      10.39011      1.436802     -.3640588     0.1150022      1.061864      3.580716      20.53889     -.7331275E-02
  1.800  11.31790      10.25842      1.418974     -.3595009     0.1179458      1.045700      3.638997      20.27858     -.7520244E-02
  1.900  11.17657      10.13004      1.401596     -.3550583     0.1209254      1.029904      3.696901      20.02478     -.7711600E-02
  2.000  11.03875      10.00482      1.384653     -.3507265     0.1239411      1.014461      3.754416      19.77726     -.7905341E-02
  2.100  10.90429      9.882663      1.368127     -.3465015     0.1269928     0.9993587      3.811529      19.53578     -.8101467E-02
  2.200  10.77308      9.763453      1.352004     -.3423795     0.1300804     0.9845855      3.868229      19.30013     -.8299978E-02
  2.300  10.64500      9.647084      1.336270     -.3383567     0.1332040     0.9701293      3.924506      19.07009     -.8500871E-02
  2.400  10.51994      9.533457      1.320910     -.3344297     0.1363634     0.9559791      3.980350      18.84548     -.8704147E-02
  2.500  10.39779      9.422475      1.305912     -.3305952     0.1395587     0.9421243      4.035751      18.62609     -.8909804E-02
  2.600  10.27846      9.314047      1.291263     -.3268498     0.1427896     0.9285549      4.090700      18.41176     -.9117841E-02
  2.700  10.16185      9.208087      1.276951     -.3231907     0.1460563     0.9152613      4.145189      18.20230     -.9328257E-02
  2.800  10.04786      9.104510      1.262964     -.3196148     0.1493585     0.9022342      4.199211      17.99755     -.9541052E-02
  2.900  9.936411      9.003238      1.249293     -.3161194     0.1526963     0.8894648      4.252757      17.79736     -.9756224E-02
  3.000  9.827418      8.904193      1.235927     -.3127019     0.1560697     0.8769448      4.305821      17.60157     -.9973772E-02
  3.100  9.720799      8.807304      1.222855     -.3093597     0.1594785     0.8646662      4.358398      17.41004     -.1019370E-01
  3.200  9.616479      8.712501      1.210068     -.3060903     0.1629226     0.8526212      4.410480      17.22264     -.1041599E-01
  3.300  9.514383      8.619717      1.197557     -.3028915     0.1664021     0.8408025      4.462064      17.03922     -.1064067E-01
  3.400  9.414441      8.528889      1.185313     -.2997609     0.1699169     0.8292030      4.513143      16.85968     -.1086771E-01
  3.500  9.316586      8.439955      1.173328     -.2966966     0.1734668     0.8178160      4.563714      16.68387     -.1109712E-01
  3.600  9.220754      8.352856      1.161594     -.2936964     0.1770519     0.8066349      4.613773      16.51170     -.1132891E-01
  3.700  9.126882      8.267537      1.150104     -.2907583     0.1806721     0.7956537      4.663315      16.34304     -.1156306E-01
  3.800  9.034911      8.183943      1.138849     -.2878805     0.1843273     0.7848662      4.712339      16.17780     -.1179959E-01
  3.900  8.944784      8.102022      1.127823     -.2850612     0.1880174     0.7742667      4.760841      16.01586     -.1203847E-01
  4.000  8.856445      8.021726      1.117018     -.2822986     0.1917424     0.7638498      4.808818      15.85713     -.1227973E-01
  4.200  8.684927      7.865814      1.096050     -.2769369     0.1992969     0.7435427      4.903191      15.54893     -.1276933E-01
  4.400  8.519959      7.715848      1.075894     -.2717829     0.2069901     0.7239048      4.995447      15.25248     -.1326838E-01
  4.600  8.361173      7.571493      1.056505     -.2668249     0.2148215     0.7048993      5.085578      14.96712     -.1377688E-01
  4.800  8.208229      7.432440      1.037841     -.2620522     0.2227905     0.6864918      5.173580      14.69225     -.1429480E-01
  5.000  8.060810      7.298403      1.019862     -.2574546     0.2308967     0.6686504      5.259456      14.42729     -.1482214E-01
  5.200  7.918624      7.169114      1.002533     -.2530229     0.2391395     0.6513458      5.343211      14.17171     -.1535890E-01
  5.400  7.781396      7.044327     0.9858181     -.2487485     0.2475182     0.6345502      5.424854      13.92503     -.1590506E-01
  5.600  7.648873      6.923809     0.9696874     -.2446232     0.2560323     0.6182380      5.504397      13.68680     -.1646060E-01
  5.800  7.520817      6.807346     0.9541108     -.2406395     0.2646813     0.6023853      5.581856      13.45658     -.1702553E-01
  6.000  7.397006      6.694736     0.9390608     -.2367904     0.2734644     0.5869697      5.657249      13.23397     -.1759984E-01
  6.200  7.277233      6.585790     0.9245119     -.2330694     0.2823812     0.5719703      5.730595      13.01861     -.1818350E-01
  6.400  7.161304      6.480334     0.9104398     -.2294702     0.2914310     0.5573675      5.801918      12.81015     -.1877651E-01
  6.600  7.049037      6.378202     0.8968221     -.2259871     0.3006132     0.5431428      5.871242      12.60826     -.1937886E-01
  6.800  6.940262      6.279240     0.8836376     -.2226147     0.3099272     0.5292791      5.938593      12.41263     -.1999053E-01
  7.000  6.834819      6.183301     0.8708665     -.2193479     0.3193723     0.5157601      6.003999      12.22298     -.2061153E-01
  7.200  6.732558      6.090250     0.8584900     -.2161820     0.3289479     0.5025707      6.067487      12.03904     -.2124182E-01
  7.400  6.633336      5.999958     0.8464907     -.2131125     0.3386533     0.4896964      6.129090      11.86055     -.2188142E-01
  7.600  6.537021      5.912304     0.8348520     -.2101351     0.3484879     0.4771237      6.188836      11.68728     -.2253029E-01
  7.800  6.443487      5.827174     0.8235584     -.2072458     0.3584511     0.4648400      6.246758      11.51900     -.2318843E-01
  8.000  6.352615      5.744461     0.8125951     -.2044410     0.3685421     0.4528331      6.302889      11.35549     -.2385583E-01
  8.200  6.264294      5.664063     0.8019482     -.2017170     0.3787603     0.4410918      6.357261      11.19657     -.2453248E-01
  8.400  6.178419      5.585885     0.7916048     -.1990705     0.3891050     0.4296053      6.409906      11.04203     -.2521836E-01
  8.600  6.094889      5.509835     0.7815523     -.1964984     0.3995754     0.4183634      6.460860      10.89169     -.2591345E-01
  8.800  6.013610      5.435829     0.7717791     -.1939977     0.4101710     0.4073565      6.510155      10.74540     -.2661776E-01
  9.000  5.934492      5.363784     0.7622741     -.1915654     0.4208911     0.3965755      6.557825      10.60298     -.2733126E-01
  9.200  5.857451      5.293623     0.7530267     -.1891990     0.4317348     0.3860117      6.603905      10.46429     -.2805394E-01
  9.400  5.782406      5.225275     0.7440270     -.1868958     0.4427015     0.3756570      6.648427      10.32918     -.2878580E-01
  9.600  5.709281      5.158669     0.7352654     -.1846535     0.4537904     0.3655036      6.691425      10.19752     -.2952680E-01
  9.800  5.638003      5.093740     0.7267331     -.1824697     0.4650009     0.3555440      6.732934      10.06917     -.3027695E-01
 10.000  5.568504      5.030425     0.7184214     -.1803423     0.4763322     0.3457712      6.772985      9.944007     -.3103623E-01
 10.500  5.402113      4.878815     0.6985552     -.1752571     0.5051841     0.3221133      6.866956      9.644310     -.3297426E-01
 11.000  5.245497      4.736077     0.6799018     -.1704816     0.5347747     0.2994857      6.952529      9.362149     -.3496904E-01
 11.500  5.097822      4.601454     0.6623577     -.1659894     0.5650921     0.2778029      7.030194      9.096029     -.3702034E-01
 12.000  4.958346      4.474272     0.6458310     -.1617571     0.5961242     0.2569887      7.100421      8.844620     -.3912793E-01
