# n +  28Si   : (n,a)             Total
# Q-value    =-2.65360E+00
# E-threshold= 2.74928E+00
# # energies =    50
#     E          xs       gamma xs  xs/res.prod.xs
 1.00000E-01 0.00000E+00 0.00000E+00 0.00000E+00
 2.00000E-01 0.00000E+00 0.00000E+00 0.00000E+00
 4.00000E-01 0.00000E+00 0.00000E+00 0.00000E+00
 6.00000E-01 0.00000E+00 0.00000E+00 0.00000E+00
 8.00000E-01 0.00000E+00 0.00000E+00 0.00000E+00
 1.00000E+00 0.00000E+00 0.00000E+00 0.00000E+00
 1.20000E+00 0.00000E+00 0.00000E+00 0.00000E+00
 1.40000E+00 0.00000E+00 0.00000E+00 0.00000E+00
 1.60000E+00 0.00000E+00 0.00000E+00 0.00000E+00
 1.80000E+00 0.00000E+00 0.00000E+00 0.00000E+00
 2.00000E+00 0.00000E+00 0.00000E+00 0.00000E+00
 2.20000E+00 0.00000E+00 0.00000E+00 0.00000E+00
 2.40000E+00 0.00000E+00 0.00000E+00 0.00000E+00
 2.60000E+00 0.00000E+00 0.00000E+00 0.00000E+00
 2.80000E+00 0.00000E+00 0.00000E+00 0.00000E+00
 3.00000E+00 0.00000E+00 0.00000E+00 0.00000E+00
 3.20000E+00 0.00000E+00 0.00000E+00 0.00000E+00
 3.40000E+00 0.00000E+00 0.00000E+00 0.00000E+00
 3.60000E+00 0.00000E+00 0.00000E+00 0.00000E+00
 3.80000E+00 0.00000E+00 0.00000E+00 0.00000E+00
 4.00000E+00 1.16542E-05 0.00000E+00 0.00000E+00
 4.20000E+00 2.52298E-04 0.00000E+00 0.00000E+00
 4.40000E+00 2.69966E-03 0.00000E+00 1.00000E+00
 4.60000E+00 1.78033E-02 4.55318E-06 1.00000E+00
 4.80000E+00 8.10290E-02 1.01542E-04 1.00000E+00
 5.00000E+00 2.80335E-01 1.07352E-03 1.00000E+00
 5.20000E+00 8.09855E-01 6.80206E-03 1.00000E+00
 5.40000E+00 1.99438E+00 3.06273E-02 1.00000E+00
 5.60000E+00 4.34968E+00 1.13816E-01 1.00000E+00
 5.80000E+00 8.52399E+00 3.47858E-01 1.00000E+00
 6.00000E+00 1.52017E+01 9.14525E-01 1.00000E+00
 6.20000E+00 2.49452E+01 2.11140E+00 1.00000E+00
 6.40000E+00 3.80264E+01 4.35505E+00 1.00000E+00
 6.60000E+00 5.28830E+01 8.03329E+00 1.00000E+00
 6.80000E+00 6.96362E+01 1.35579E+01 1.00000E+00
 7.00000E+00 8.79385E+01 2.10888E+01 1.00000E+00
 7.20000E+00 1.04677E+02 3.03570E+01 9.99999E-01
 7.40000E+00 1.18658E+02 4.07090E+01 9.99999E-01
 7.60000E+00 1.32942E+02 5.29019E+01 9.99999E-01
 7.80000E+00 1.43325E+02 6.44590E+01 9.99999E-01
 8.00000E+00 1.54355E+02 7.74781E+01 9.99998E-01
 8.50000E+00 1.77135E+02 1.13165E+02 9.99997E-01
 9.00000E+00 1.90868E+02 1.49769E+02 9.99995E-01
 9.50000E+00 1.98118E+02 1.85490E+02 9.99992E-01
 1.00000E+01 2.00942E+02 2.18069E+02 9.99988E-01
 1.20000E+01 1.88615E+02 2.88350E+02 9.99953E-01
 1.40000E+01 1.71721E+02 3.09328E+02 9.99888E-01
 1.60000E+01 1.28678E+02 2.53054E+02 9.99749E-01
 1.80000E+01 7.48130E+01 1.53708E+02 9.99393E-01
 2.00000E+01 4.16180E+01 8.77813E+01 9.98712E-01
