# n + 208Pb: Gamma-ray intensity - 208Pb: Level  4 --> Level  1 - gamma energy    1.093929
# E-initial  =   3.708451 E-final=   2.614522
# E-threshold= 3.72644E+00
# # energies =    67
#    E           xs
 1.00000E-11 0.00000E+00
 2.53000E-08 0.00000E+00
 2.00000E-07 0.00000E+00
 1.00000E-06 0.00000E+00
 1.00000E-03 0.00000E+00
 2.00000E-03 0.00000E+00
 5.00000E-03 0.00000E+00
 1.00000E-02 0.00000E+00
 2.00000E-02 0.00000E+00
 5.00000E-02 0.00000E+00
 1.00000E-01 0.00000E+00
 2.00000E-01 0.00000E+00
 3.00000E-01 0.00000E+00
 4.00000E-01 0.00000E+00
 5.00000E-01 0.00000E+00
 7.50000E-01 0.00000E+00
 1.00000E+00 0.00000E+00
 1.20000E+00 0.00000E+00
 1.40000E+00 0.00000E+00
 1.60000E+00 0.00000E+00
 1.80000E+00 0.00000E+00
 2.00000E+00 0.00000E+00
 2.20000E+00 0.00000E+00
 2.40000E+00 0.00000E+00
 2.60000E+00 0.00000E+00
 2.80000E+00 0.00000E+00
 3.00000E+00 0.00000E+00
 3.20000E+00 0.00000E+00
 3.40000E+00 0.00000E+00
 3.60000E+00 0.00000E+00
 3.80000E+00 7.08014E-01
 4.00000E+00 1.88005E+00
 4.20000E+00 2.92207E+00
 4.40000E+00 3.58058E+00
 4.60000E+00 3.92049E+00
 4.80000E+00 4.17003E+00
 5.00000E+00 4.34588E+00
 5.50000E+00 4.55642E+00
 6.00000E+00 4.63173E+00
 6.50000E+00 4.73298E+00
 7.00000E+00 4.91660E+00
 7.50000E+00 5.16565E+00
 8.00000E+00 5.31186E+00
 8.50000E+00 5.15247E+00
 9.00000E+00 4.62162E+00
 9.50000E+00 3.87465E+00
 1.00000E+01 3.07618E+00
 1.10000E+01 1.79533E+00
 1.20000E+01 1.07586E+00
 1.30000E+01 7.48715E-01
 1.40000E+01 6.02409E-01
 1.50000E+01 5.30161E-01
 1.60000E+01 4.87541E-01
 1.70000E+01 4.62442E-01
 1.80000E+01 4.33726E-01
 1.90000E+01 4.09619E-01
 2.00000E+01 3.87696E-01
 2.10000E+01 3.67031E-01
 2.20000E+01 3.52372E-01
 2.30000E+01 3.32958E-01
 2.40000E+01 3.13694E-01
 2.50000E+01 2.94918E-01
 2.60000E+01 2.80206E-01
 2.70000E+01 2.62649E-01
 2.80000E+01 2.51212E-01
 2.90000E+01 2.42439E-01
 3.00000E+01 2.26034E-01
