# n + 208Pb: Gamma-ray intensity - 208Pb: Level 21 --> Level  2 - gamma energy    1.160959
# E-initial  =   4.358670 E-final=   3.197711
# E-threshold= 4.37981E+00
# # energies =    67
#    E           xs
 1.00000E-11 0.00000E+00
 2.53000E-08 0.00000E+00
 2.00000E-07 0.00000E+00
 1.00000E-06 0.00000E+00
 1.00000E-03 0.00000E+00
 2.00000E-03 0.00000E+00
 5.00000E-03 0.00000E+00
 1.00000E-02 0.00000E+00
 2.00000E-02 0.00000E+00
 5.00000E-02 0.00000E+00
 1.00000E-01 0.00000E+00
 2.00000E-01 0.00000E+00
 3.00000E-01 0.00000E+00
 4.00000E-01 0.00000E+00
 5.00000E-01 0.00000E+00
 7.50000E-01 0.00000E+00
 1.00000E+00 0.00000E+00
 1.20000E+00 0.00000E+00
 1.40000E+00 0.00000E+00
 1.60000E+00 0.00000E+00
 1.80000E+00 0.00000E+00
 2.00000E+00 0.00000E+00
 2.20000E+00 0.00000E+00
 2.40000E+00 0.00000E+00
 2.60000E+00 0.00000E+00
 2.80000E+00 0.00000E+00
 3.00000E+00 0.00000E+00
 3.20000E+00 0.00000E+00
 3.40000E+00 0.00000E+00
 3.60000E+00 0.00000E+00
 3.80000E+00 0.00000E+00
 4.00000E+00 0.00000E+00
 4.20000E+00 0.00000E+00
 4.40000E+00 2.57663E+00
 4.60000E+00 9.14983E+00
 4.80000E+00 1.29641E+01
 5.00000E+00 1.47218E+01
 5.50000E+00 1.44425E+01
 6.00000E+00 1.29561E+01
 6.50000E+00 1.17437E+01
 7.00000E+00 1.07093E+01
 7.50000E+00 9.96782E+00
 8.00000E+00 9.01755E+00
 8.50000E+00 7.59315E+00
 9.00000E+00 5.99537E+00
 9.50000E+00 4.47148E+00
 1.00000E+01 3.21300E+00
 1.10000E+01 1.61942E+00
 1.20000E+01 9.03663E-01
 1.30000E+01 6.06773E-01
 1.40000E+01 4.73447E-01
 1.50000E+01 4.09884E-01
 1.60000E+01 3.68780E-01
 1.70000E+01 3.44546E-01
 1.80000E+01 3.21406E-01
 1.90000E+01 3.04010E-01
 2.00000E+01 2.88218E-01
 2.10000E+01 2.71653E-01
 2.20000E+01 2.60674E-01
 2.30000E+01 2.45521E-01
 2.40000E+01 2.30125E-01
 2.50000E+01 2.19287E-01
 2.60000E+01 2.04774E-01
 2.70000E+01 1.96089E-01
 2.80000E+01 1.84588E-01
 2.90000E+01 1.79236E-01
 3.00000E+01 1.69080E-01
