# n + 208Pb: Gamma-ray intensity - 209Pb: Level  5 --> Level  4 - gamma energy    0.117210
# E-initial  =   2.149430 E-final=   2.032220
# E-threshold= 0.00000E+00
# # energies =    67
#    E           xs
 1.00000E-11 0.00000E+00
 2.53000E-08 0.00000E+00
 2.00000E-07 0.00000E+00
 1.00000E-06 9.83945E+01
 1.00000E-03 2.94418E-01
 2.00000E-03 1.67484E-01
 5.00000E-03 8.37762E-02
 1.00000E-02 4.81503E-02
 2.00000E-02 2.64025E-02
 5.00000E-02 1.16677E-02
 1.00000E-01 6.54437E-03
 2.00000E-01 4.02740E-03
 3.00000E-01 3.27489E-03
 4.00000E-01 2.97300E-03
 5.00000E-01 2.86455E-03
 7.50000E-01 2.98442E-03
 1.00000E+00 3.40270E-03
 1.20000E+00 3.89287E-03
 1.40000E+00 4.54393E-03
 1.60000E+00 5.31360E-03
 1.80000E+00 6.27356E-03
 2.00000E+00 7.41704E-03
 2.20000E+00 8.76508E-03
 2.40000E+00 1.03478E-02
 2.60000E+00 1.23896E-02
 2.80000E+00 1.21869E-02
 3.00000E+00 1.26207E-02
 3.20000E+00 1.35749E-02
 3.40000E+00 1.42314E-02
 3.60000E+00 1.51967E-02
 3.80000E+00 1.54975E-02
 4.00000E+00 1.61243E-02
 4.20000E+00 1.47512E-02
 4.40000E+00 1.17233E-02
 4.60000E+00 1.00864E-02
 4.80000E+00 1.09332E-02
 5.00000E+00 9.64405E-03
 5.50000E+00 7.90509E-03
 6.00000E+00 6.77853E-03
 6.50000E+00 6.80993E-03
 7.00000E+00 7.18143E-03
 7.50000E+00 8.54981E-03
 8.00000E+00 1.02897E-02
 8.50000E+00 1.28297E-02
 9.00000E+00 1.64864E-02
 9.50000E+00 2.09911E-02
 1.00000E+01 2.60783E-02
 1.10000E+01 3.78635E-02
 1.20000E+01 4.44688E-02
 1.30000E+01 4.06266E-02
 1.40000E+01 3.38976E-02
 1.50000E+01 2.79124E-02
 1.60000E+01 2.28950E-02
 1.70000E+01 1.97393E-02
 1.80000E+01 1.58807E-02
 1.90000E+01 1.47848E-02
 2.00000E+01 1.34381E-02
 2.10000E+01 1.19541E-02
 2.20000E+01 1.10264E-02
 2.30000E+01 1.01292E-02
 2.40000E+01 8.98333E-03
 2.50000E+01 8.37516E-03
 2.60000E+01 7.64638E-03
 2.70000E+01 6.80592E-03
 2.80000E+01 6.23895E-03
 2.90000E+01 5.89820E-03
 3.00000E+01 5.66038E-03
