# n + 208Pb: Gamma-ray intensity - 208Pb: Level 12 --> Level  6 - gamma energy    0.178769
# E-initial  =   4.125347 E-final=   3.946578
# E-threshold= 4.14535E+00
# # energies =    67
#    E           xs
 1.00000E-11 0.00000E+00
 2.53000E-08 0.00000E+00
 2.00000E-07 0.00000E+00
 1.00000E-06 0.00000E+00
 1.00000E-03 0.00000E+00
 2.00000E-03 0.00000E+00
 5.00000E-03 0.00000E+00
 1.00000E-02 0.00000E+00
 2.00000E-02 0.00000E+00
 5.00000E-02 0.00000E+00
 1.00000E-01 0.00000E+00
 2.00000E-01 0.00000E+00
 3.00000E-01 0.00000E+00
 4.00000E-01 0.00000E+00
 5.00000E-01 0.00000E+00
 7.50000E-01 0.00000E+00
 1.00000E+00 0.00000E+00
 1.20000E+00 0.00000E+00
 1.40000E+00 0.00000E+00
 1.60000E+00 0.00000E+00
 1.80000E+00 0.00000E+00
 2.00000E+00 0.00000E+00
 2.20000E+00 0.00000E+00
 2.40000E+00 0.00000E+00
 2.60000E+00 0.00000E+00
 2.80000E+00 0.00000E+00
 3.00000E+00 0.00000E+00
 3.20000E+00 0.00000E+00
 3.40000E+00 0.00000E+00
 3.60000E+00 0.00000E+00
 3.80000E+00 0.00000E+00
 4.00000E+00 0.00000E+00
 4.20000E+00 1.35634E-01
 4.40000E+00 3.05775E-01
 4.60000E+00 4.01907E-01
 4.80000E+00 4.53586E-01
 5.00000E+00 4.72716E-01
 5.50000E+00 4.69033E-01
 6.00000E+00 4.56651E-01
 6.50000E+00 4.46993E-01
 7.00000E+00 4.43662E-01
 7.50000E+00 4.48149E-01
 8.00000E+00 4.45823E-01
 8.50000E+00 4.17791E-01
 9.00000E+00 3.63296E-01
 9.50000E+00 3.00445E-01
 1.00000E+01 2.41113E-01
 1.10000E+01 1.55298E-01
 1.20000E+01 1.12512E-01
 1.30000E+01 9.30983E-02
 1.40000E+01 8.34116E-02
 1.50000E+01 7.72781E-02
 1.60000E+01 7.26181E-02
 1.70000E+01 6.91843E-02
 1.80000E+01 6.59527E-02
 1.90000E+01 6.32985E-02
 2.00000E+01 6.08137E-02
 2.10000E+01 5.83575E-02
 2.20000E+01 5.60718E-02
 2.30000E+01 5.37155E-02
 2.40000E+01 5.14078E-02
 2.50000E+01 4.93415E-02
 2.60000E+01 4.74039E-02
 2.70000E+01 4.57868E-02
 2.80000E+01 4.42130E-02
 2.90000E+01 4.28483E-02
 3.00000E+01 4.13173E-02
