# n + 208Pb: Gamma-ray intensity - 208Pb: Level  9 --> Level  5 - gamma energy    0.117477
# E-initial  =   4.037443 E-final=   3.919966
# E-threshold= 4.05702E+00
# # energies =    67
#    E           xs
 1.00000E-11 0.00000E+00
 2.53000E-08 0.00000E+00
 2.00000E-07 0.00000E+00
 1.00000E-06 0.00000E+00
 1.00000E-03 0.00000E+00
 2.00000E-03 0.00000E+00
 5.00000E-03 0.00000E+00
 1.00000E-02 0.00000E+00
 2.00000E-02 0.00000E+00
 5.00000E-02 0.00000E+00
 1.00000E-01 0.00000E+00
 2.00000E-01 0.00000E+00
 3.00000E-01 0.00000E+00
 4.00000E-01 0.00000E+00
 5.00000E-01 0.00000E+00
 7.50000E-01 0.00000E+00
 1.00000E+00 0.00000E+00
 1.20000E+00 0.00000E+00
 1.40000E+00 0.00000E+00
 1.60000E+00 0.00000E+00
 1.80000E+00 0.00000E+00
 2.00000E+00 0.00000E+00
 2.20000E+00 0.00000E+00
 2.40000E+00 0.00000E+00
 2.60000E+00 0.00000E+00
 2.80000E+00 0.00000E+00
 3.00000E+00 0.00000E+00
 3.20000E+00 0.00000E+00
 3.40000E+00 0.00000E+00
 3.60000E+00 0.00000E+00
 3.80000E+00 0.00000E+00
 4.00000E+00 0.00000E+00
 4.20000E+00 2.59014E-01
 4.40000E+00 6.88130E-01
 4.60000E+00 9.90541E-01
 4.80000E+00 1.20299E+00
 5.00000E+00 1.40168E+00
 5.50000E+00 2.08772E+00
 6.00000E+00 3.01502E+00
 6.50000E+00 4.14338E+00
 7.00000E+00 5.46898E+00
 7.50000E+00 6.90321E+00
 8.00000E+00 8.28817E+00
 8.50000E+00 9.41940E+00
 9.00000E+00 9.87872E+00
 9.50000E+00 9.45659E+00
 1.00000E+01 8.33124E+00
 1.10000E+01 5.59667E+00
 1.20000E+01 3.45436E+00
 1.30000E+01 2.36936E+00
 1.40000E+01 1.86452E+00
 1.50000E+01 1.63433E+00
 1.60000E+01 1.51715E+00
 1.70000E+01 1.46075E+00
 1.80000E+01 1.38422E+00
 1.90000E+01 1.31116E+00
 2.00000E+01 1.24418E+00
 2.10000E+01 1.18163E+00
 2.20000E+01 1.15347E+00
 2.30000E+01 1.08573E+00
 2.40000E+01 1.03216E+00
 2.50000E+01 9.61537E-01
 2.60000E+01 9.20851E-01
 2.70000E+01 8.45404E-01
 2.80000E+01 8.09649E-01
 2.90000E+01 7.82007E-01
 3.00000E+01 7.10075E-01
