# n + 208Pb: Gamma-ray intensity - 208Pb: Level  3 --> Level  2 - gamma energy    0.277367
# E-initial  =   3.475078 E-final=   3.197711
# E-threshold= 3.49193E+00
# # energies =    67
#    E           xs
 1.00000E-11 0.00000E+00
 2.53000E-08 0.00000E+00
 2.00000E-07 0.00000E+00
 1.00000E-06 0.00000E+00
 1.00000E-03 0.00000E+00
 2.00000E-03 0.00000E+00
 5.00000E-03 0.00000E+00
 1.00000E-02 0.00000E+00
 2.00000E-02 0.00000E+00
 5.00000E-02 0.00000E+00
 1.00000E-01 0.00000E+00
 2.00000E-01 0.00000E+00
 3.00000E-01 0.00000E+00
 4.00000E-01 0.00000E+00
 5.00000E-01 0.00000E+00
 7.50000E-01 0.00000E+00
 1.00000E+00 0.00000E+00
 1.20000E+00 0.00000E+00
 1.40000E+00 0.00000E+00
 1.60000E+00 0.00000E+00
 1.80000E+00 0.00000E+00
 2.00000E+00 0.00000E+00
 2.20000E+00 0.00000E+00
 2.40000E+00 0.00000E+00
 2.60000E+00 0.00000E+00
 2.80000E+00 0.00000E+00
 3.00000E+00 0.00000E+00
 3.20000E+00 0.00000E+00
 3.40000E+00 0.00000E+00
 3.60000E+00 2.44606E+01
 3.80000E+00 5.01047E+01
 4.00000E+00 6.87317E+01
 4.20000E+00 7.75322E+01
 4.40000E+00 8.29683E+01
 4.60000E+00 8.75316E+01
 4.80000E+00 9.15614E+01
 5.00000E+00 9.43914E+01
 5.50000E+00 9.38233E+01
 6.00000E+00 8.89766E+01
 6.50000E+00 8.48308E+01
 7.00000E+00 8.19504E+01
 7.50000E+00 7.99968E+01
 8.00000E+00 7.46586E+01
 8.50000E+00 6.44012E+01
 9.00000E+00 5.19773E+01
 9.50000E+00 3.96575E+01
 1.00000E+01 2.92327E+01
 1.10000E+01 1.55961E+01
 1.20000E+01 9.26538E+00
 1.30000E+01 6.60380E+00
 1.40000E+01 5.38076E+00
 1.50000E+01 4.74777E+00
 1.60000E+01 4.31061E+00
 1.70000E+01 4.02559E+00
 1.80000E+01 3.75601E+00
 1.90000E+01 3.52381E+00
 2.00000E+01 3.33267E+00
 2.10000E+01 3.13247E+00
 2.20000E+01 2.97805E+00
 2.30000E+01 2.80161E+00
 2.40000E+01 2.63043E+00
 2.50000E+01 2.47455E+00
 2.60000E+01 2.33674E+00
 2.70000E+01 2.21462E+00
 2.80000E+01 2.11224E+00
 2.90000E+01 2.03976E+00
 3.00000E+01 1.94612E+00
