# n + 208Pb: Gamma-ray intensity - 208Pb: Level 20 --> Level  2 - gamma energy    1.126235
# E-initial  =   4.323946 E-final=   3.197711
# E-threshold= 4.34492E+00
# # energies =    67
#    E           xs
 1.00000E-11 0.00000E+00
 2.53000E-08 0.00000E+00
 2.00000E-07 0.00000E+00
 1.00000E-06 0.00000E+00
 1.00000E-03 0.00000E+00
 2.00000E-03 0.00000E+00
 5.00000E-03 0.00000E+00
 1.00000E-02 0.00000E+00
 2.00000E-02 0.00000E+00
 5.00000E-02 0.00000E+00
 1.00000E-01 0.00000E+00
 2.00000E-01 0.00000E+00
 3.00000E-01 0.00000E+00
 4.00000E-01 0.00000E+00
 5.00000E-01 0.00000E+00
 7.50000E-01 0.00000E+00
 1.00000E+00 0.00000E+00
 1.20000E+00 0.00000E+00
 1.40000E+00 0.00000E+00
 1.60000E+00 0.00000E+00
 1.80000E+00 0.00000E+00
 2.00000E+00 0.00000E+00
 2.20000E+00 0.00000E+00
 2.40000E+00 0.00000E+00
 2.60000E+00 0.00000E+00
 2.80000E+00 0.00000E+00
 3.00000E+00 0.00000E+00
 3.20000E+00 0.00000E+00
 3.40000E+00 0.00000E+00
 3.60000E+00 0.00000E+00
 3.80000E+00 0.00000E+00
 4.00000E+00 0.00000E+00
 4.20000E+00 0.00000E+00
 4.40000E+00 1.00500E+01
 4.60000E+00 3.90691E+01
 4.80000E+00 5.56247E+01
 5.00000E+00 6.26689E+01
 5.50000E+00 6.54564E+01
 6.00000E+00 6.47821E+01
 6.50000E+00 6.10708E+01
 7.00000E+00 5.62917E+01
 7.50000E+00 5.37909E+01
 8.00000E+00 5.06474E+01
 8.50000E+00 4.44835E+01
 9.00000E+00 3.74806E+01
 9.50000E+00 3.03801E+01
 1.00000E+01 2.42699E+01
 1.10000E+01 1.62188E+01
 1.20000E+01 1.25396E+01
 1.30000E+01 1.10132E+01
 1.40000E+01 1.01772E+01
 1.50000E+01 9.61739E+00
 1.60000E+01 9.12548E+00
 1.70000E+01 8.71132E+00
 1.80000E+01 8.33755E+00
 1.90000E+01 7.95255E+00
 2.00000E+01 7.63635E+00
 2.10000E+01 7.28892E+00
 2.20000E+01 7.03057E+00
 2.30000E+01 6.75938E+00
 2.40000E+01 6.49855E+00
 2.50000E+01 6.31854E+00
 2.60000E+01 6.12054E+00
 2.70000E+01 5.89089E+00
 2.80000E+01 5.71886E+00
 2.90000E+01 5.59394E+00
 3.00000E+01 5.44644E+00
