# n + 208Pb: Gamma-ray intensity - 208Pb: Level  4 --> Level  2 - gamma energy    0.510740
# E-initial  =   3.708451 E-final=   3.197711
# E-threshold= 3.72644E+00
# # energies =    67
#    E           xs
 1.00000E-11 0.00000E+00
 2.53000E-08 0.00000E+00
 2.00000E-07 0.00000E+00
 1.00000E-06 0.00000E+00
 1.00000E-03 0.00000E+00
 2.00000E-03 0.00000E+00
 5.00000E-03 0.00000E+00
 1.00000E-02 0.00000E+00
 2.00000E-02 0.00000E+00
 5.00000E-02 0.00000E+00
 1.00000E-01 0.00000E+00
 2.00000E-01 0.00000E+00
 3.00000E-01 0.00000E+00
 4.00000E-01 0.00000E+00
 5.00000E-01 0.00000E+00
 7.50000E-01 0.00000E+00
 1.00000E+00 0.00000E+00
 1.20000E+00 0.00000E+00
 1.40000E+00 0.00000E+00
 1.60000E+00 0.00000E+00
 1.80000E+00 0.00000E+00
 2.00000E+00 0.00000E+00
 2.20000E+00 0.00000E+00
 2.40000E+00 0.00000E+00
 2.60000E+00 0.00000E+00
 2.80000E+00 0.00000E+00
 3.00000E+00 0.00000E+00
 3.20000E+00 0.00000E+00
 3.40000E+00 0.00000E+00
 3.60000E+00 0.00000E+00
 3.80000E+00 4.04573E+01
 4.00000E+00 1.07430E+02
 4.20000E+00 1.66973E+02
 4.40000E+00 2.04601E+02
 4.60000E+00 2.24025E+02
 4.80000E+00 2.38284E+02
 5.00000E+00 2.48332E+02
 5.50000E+00 2.60362E+02
 6.00000E+00 2.64666E+02
 6.50000E+00 2.70451E+02
 7.00000E+00 2.80944E+02
 7.50000E+00 2.95175E+02
 8.00000E+00 3.03530E+02
 8.50000E+00 2.94422E+02
 9.00000E+00 2.64089E+02
 9.50000E+00 2.21405E+02
 1.00000E+01 1.75779E+02
 1.10000E+01 1.02589E+02
 1.20000E+01 6.14770E+01
 1.30000E+01 4.27830E+01
 1.40000E+01 3.44228E+01
 1.50000E+01 3.02944E+01
 1.60000E+01 2.78591E+01
 1.70000E+01 2.64248E+01
 1.80000E+01 2.47840E+01
 1.90000E+01 2.34064E+01
 2.00000E+01 2.21537E+01
 2.10000E+01 2.09728E+01
 2.20000E+01 2.01352E+01
 2.30000E+01 1.90258E+01
 2.40000E+01 1.79251E+01
 2.50000E+01 1.68522E+01
 2.60000E+01 1.60115E+01
 2.70000E+01 1.50083E+01
 2.80000E+01 1.43547E+01
 2.90000E+01 1.38534E+01
 3.00000E+01 1.29160E+01
