# n + 208Pb: Gamma-ray intensity - 208Pb: Level  4 --> Level  3 - gamma energy    0.233373
# E-initial  =   3.708451 E-final=   3.475078
# E-threshold= 3.72644E+00
# # energies =    67
#    E           xs
 1.00000E-11 0.00000E+00
 2.53000E-08 0.00000E+00
 2.00000E-07 0.00000E+00
 1.00000E-06 0.00000E+00
 1.00000E-03 0.00000E+00
 2.00000E-03 0.00000E+00
 5.00000E-03 0.00000E+00
 1.00000E-02 0.00000E+00
 2.00000E-02 0.00000E+00
 5.00000E-02 0.00000E+00
 1.00000E-01 0.00000E+00
 2.00000E-01 0.00000E+00
 3.00000E-01 0.00000E+00
 4.00000E-01 0.00000E+00
 5.00000E-01 0.00000E+00
 7.50000E-01 0.00000E+00
 1.00000E+00 0.00000E+00
 1.20000E+00 0.00000E+00
 1.40000E+00 0.00000E+00
 1.60000E+00 0.00000E+00
 1.80000E+00 0.00000E+00
 2.00000E+00 0.00000E+00
 2.20000E+00 0.00000E+00
 2.40000E+00 0.00000E+00
 2.60000E+00 0.00000E+00
 2.80000E+00 0.00000E+00
 3.00000E+00 0.00000E+00
 3.20000E+00 0.00000E+00
 3.40000E+00 0.00000E+00
 3.60000E+00 0.00000E+00
 3.80000E+00 5.50221E-01
 4.00000E+00 1.46105E+00
 4.20000E+00 2.27084E+00
 4.40000E+00 2.78259E+00
 4.60000E+00 3.04675E+00
 4.80000E+00 3.24067E+00
 5.00000E+00 3.37733E+00
 5.50000E+00 3.54095E+00
 6.00000E+00 3.59947E+00
 6.50000E+00 3.67816E+00
 7.00000E+00 3.82085E+00
 7.50000E+00 4.01440E+00
 8.00000E+00 4.12803E+00
 8.50000E+00 4.00416E+00
 9.00000E+00 3.59162E+00
 9.50000E+00 3.01112E+00
 1.00000E+01 2.39060E+00
 1.10000E+01 1.39521E+00
 1.20000E+01 8.36091E-01
 1.30000E+01 5.81851E-01
 1.40000E+01 4.68153E-01
 1.50000E+01 4.12006E-01
 1.60000E+01 3.78885E-01
 1.70000E+01 3.59379E-01
 1.80000E+01 3.37063E-01
 1.90000E+01 3.18329E-01
 2.00000E+01 3.01292E-01
 2.10000E+01 2.85232E-01
 2.20000E+01 2.73840E-01
 2.30000E+01 2.58753E-01
 2.40000E+01 2.43783E-01
 2.50000E+01 2.29191E-01
 2.60000E+01 2.17757E-01
 2.70000E+01 2.04114E-01
 2.80000E+01 1.95225E-01
 2.90000E+01 1.88407E-01
 3.00000E+01 1.75659E-01
