# n + 208Pb: Gamma-ray intensity - 208Pb: Level  6 --> Level  4 - gamma energy    0.238127
# E-initial  =   3.946578 E-final=   3.708451
# E-threshold= 3.96572E+00
# # energies =    67
#    E           xs
 1.00000E-11 0.00000E+00
 2.53000E-08 0.00000E+00
 2.00000E-07 0.00000E+00
 1.00000E-06 0.00000E+00
 1.00000E-03 0.00000E+00
 2.00000E-03 0.00000E+00
 5.00000E-03 0.00000E+00
 1.00000E-02 0.00000E+00
 2.00000E-02 0.00000E+00
 5.00000E-02 0.00000E+00
 1.00000E-01 0.00000E+00
 2.00000E-01 0.00000E+00
 3.00000E-01 0.00000E+00
 4.00000E-01 0.00000E+00
 5.00000E-01 0.00000E+00
 7.50000E-01 0.00000E+00
 1.00000E+00 0.00000E+00
 1.20000E+00 0.00000E+00
 1.40000E+00 0.00000E+00
 1.60000E+00 0.00000E+00
 1.80000E+00 0.00000E+00
 2.00000E+00 0.00000E+00
 2.20000E+00 0.00000E+00
 2.40000E+00 0.00000E+00
 2.60000E+00 0.00000E+00
 2.80000E+00 0.00000E+00
 3.00000E+00 0.00000E+00
 3.20000E+00 0.00000E+00
 3.40000E+00 0.00000E+00
 3.60000E+00 0.00000E+00
 3.80000E+00 0.00000E+00
 4.00000E+00 4.02362E+00
 4.20000E+00 1.15046E+01
 4.40000E+00 1.49167E+01
 4.60000E+00 1.59000E+01
 4.80000E+00 1.58729E+01
 5.00000E+00 1.54124E+01
 5.50000E+00 1.41867E+01
 6.00000E+00 1.31361E+01
 6.50000E+00 1.21975E+01
 7.00000E+00 1.15577E+01
 7.50000E+00 1.11921E+01
 8.00000E+00 1.03922E+01
 8.50000E+00 8.88132E+00
 9.00000E+00 7.08366E+00
 9.50000E+00 5.33119E+00
 1.00000E+01 3.86856E+00
 1.10000E+01 1.98985E+00
 1.20000E+01 1.13529E+00
 1.30000E+01 7.79768E-01
 1.40000E+01 6.18068E-01
 1.50000E+01 5.36792E-01
 1.60000E+01 4.81523E-01
 1.70000E+01 4.46484E-01
 1.80000E+01 4.12785E-01
 1.90000E+01 3.84636E-01
 2.00000E+01 3.61260E-01
 2.10000E+01 3.37226E-01
 2.20000E+01 3.18649E-01
 2.30000E+01 2.97918E-01
 2.40000E+01 2.77490E-01
 2.50000E+01 2.58726E-01
 2.60000E+01 2.42035E-01
 2.70000E+01 2.28321E-01
 2.80000E+01 2.16333E-01
 2.90000E+01 2.08033E-01
 3.00000E+01 1.97619E-01
