# n + 208Pb: Gamma-ray intensity - 208Pb: Level 15 --> Level  2 - gamma energy    1.008566
# E-initial  =   4.206277 E-final=   3.197711
# E-threshold= 4.22668E+00
# # energies =    67
#    E           xs
 1.00000E-11 0.00000E+00
 2.53000E-08 0.00000E+00
 2.00000E-07 0.00000E+00
 1.00000E-06 0.00000E+00
 1.00000E-03 0.00000E+00
 2.00000E-03 0.00000E+00
 5.00000E-03 0.00000E+00
 1.00000E-02 0.00000E+00
 2.00000E-02 0.00000E+00
 5.00000E-02 0.00000E+00
 1.00000E-01 0.00000E+00
 2.00000E-01 0.00000E+00
 3.00000E-01 0.00000E+00
 4.00000E-01 0.00000E+00
 5.00000E-01 0.00000E+00
 7.50000E-01 0.00000E+00
 1.00000E+00 0.00000E+00
 1.20000E+00 0.00000E+00
 1.40000E+00 0.00000E+00
 1.60000E+00 0.00000E+00
 1.80000E+00 0.00000E+00
 2.00000E+00 0.00000E+00
 2.20000E+00 0.00000E+00
 2.40000E+00 0.00000E+00
 2.60000E+00 0.00000E+00
 2.80000E+00 0.00000E+00
 3.00000E+00 0.00000E+00
 3.20000E+00 0.00000E+00
 3.40000E+00 0.00000E+00
 3.60000E+00 0.00000E+00
 3.80000E+00 0.00000E+00
 4.00000E+00 0.00000E+00
 4.20000E+00 0.00000E+00
 4.40000E+00 1.47231E+01
 4.60000E+00 2.19936E+01
 4.80000E+00 2.71349E+01
 5.00000E+00 3.05989E+01
 5.50000E+00 3.54719E+01
 6.00000E+00 3.94264E+01
 6.50000E+00 4.37293E+01
 7.00000E+00 4.84727E+01
 7.50000E+00 5.36861E+01
 8.00000E+00 5.83739E+01
 8.50000E+00 6.02934E+01
 9.00000E+00 5.69668E+01
 9.50000E+00 4.93905E+01
 1.00000E+01 3.98715E+01
 1.10000E+01 2.32390E+01
 1.20000E+01 1.32895E+01
 1.30000E+01 8.74518E+00
 1.40000E+01 6.77520E+00
 1.50000E+01 5.84810E+00
 1.60000E+01 5.36458E+00
 1.70000E+01 5.10677E+00
 1.80000E+01 4.77766E+00
 1.90000E+01 4.50350E+00
 2.00000E+01 4.25008E+00
 2.10000E+01 4.01127E+00
 2.20000E+01 3.86887E+00
 2.30000E+01 3.65052E+00
 2.40000E+01 3.41439E+00
 2.50000E+01 3.21534E+00
 2.60000E+01 3.05360E+00
 2.70000E+01 2.81755E+00
 2.80000E+01 2.69725E+00
 2.90000E+01 2.60876E+00
 3.00000E+01 2.36985E+00
