# n + 208Pb: Gamma-ray intensity - 209Pb: Level  3 --> Level  0 - gamma energy    1.567090
# E-initial  =   1.567090 E-final=   0.000000
# E-threshold= 0.00000E+00
# # energies =    67
#    E           xs
 1.00000E-11 0.00000E+00
 2.53000E-08 0.00000E+00
 2.00000E-07 0.00000E+00
 1.00000E-06 3.93025E+02
 1.00000E-03 2.24703E+00
 2.00000E-03 1.32266E+00
 5.00000E-03 7.09016E-01
 1.00000E-02 4.27938E-01
 2.00000E-02 2.41583E-01
 5.00000E-02 1.25473E-01
 1.00000E-01 8.73796E-02
 2.00000E-01 6.39493E-02
 3.00000E-01 5.50534E-02
 4.00000E-01 5.10620E-02
 5.00000E-01 4.96034E-02
 7.50000E-01 5.18029E-02
 1.00000E+00 5.89361E-02
 1.20000E+00 6.73615E-02
 1.40000E+00 7.85058E-02
 1.60000E+00 9.17321E-02
 1.80000E+00 1.08287E-01
 2.00000E+00 1.28093E-01
 2.20000E+00 1.51416E-01
 2.40000E+00 1.78822E-01
 2.60000E+00 2.13524E-01
 2.80000E+00 1.83263E-01
 3.00000E+00 1.83167E-01
 3.20000E+00 1.94240E-01
 3.40000E+00 2.01611E-01
 3.60000E+00 2.11272E-01
 3.80000E+00 2.15092E-01
 4.00000E+00 2.23553E-01
 4.20000E+00 2.06599E-01
 4.40000E+00 1.65035E-01
 4.60000E+00 1.41825E-01
 4.80000E+00 1.46178E-01
 5.00000E+00 1.30535E-01
 5.50000E+00 1.05766E-01
 6.00000E+00 8.91623E-02
 6.50000E+00 8.46980E-02
 7.00000E+00 8.55602E-02
 7.50000E+00 9.67634E-02
 8.00000E+00 1.13759E-01
 8.50000E+00 1.38873E-01
 9.00000E+00 1.74094E-01
 9.50000E+00 2.18481E-01
 1.00000E+01 2.67446E-01
 1.10000E+01 3.69123E-01
 1.20000E+01 4.18868E-01
 1.30000E+01 3.80204E-01
 1.40000E+01 3.17099E-01
 1.50000E+01 2.59251E-01
 1.60000E+01 2.11812E-01
 1.70000E+01 1.81134E-01
 1.80000E+01 1.45754E-01
 1.90000E+01 1.29479E-01
 2.00000E+01 1.17145E-01
 2.10000E+01 1.04493E-01
 2.20000E+01 9.65959E-02
 2.30000E+01 8.91484E-02
 2.40000E+01 7.99883E-02
 2.50000E+01 7.48655E-02
 2.60000E+01 6.89404E-02
 2.70000E+01 6.23603E-02
 2.80000E+01 5.66685E-02
 2.90000E+01 5.32716E-02
 3.00000E+01 5.06885E-02
