# n + 208Pb: Gamma-ray intensity - 208Pb: Level  6 --> Level  2 - gamma energy    0.748867
# E-initial  =   3.946578 E-final=   3.197711
# E-threshold= 3.96572E+00
# # energies =    67
#    E           xs
 1.00000E-11 0.00000E+00
 2.53000E-08 0.00000E+00
 2.00000E-07 0.00000E+00
 1.00000E-06 0.00000E+00
 1.00000E-03 0.00000E+00
 2.00000E-03 0.00000E+00
 5.00000E-03 0.00000E+00
 1.00000E-02 0.00000E+00
 2.00000E-02 0.00000E+00
 5.00000E-02 0.00000E+00
 1.00000E-01 0.00000E+00
 2.00000E-01 0.00000E+00
 3.00000E-01 0.00000E+00
 4.00000E-01 0.00000E+00
 5.00000E-01 0.00000E+00
 7.50000E-01 0.00000E+00
 1.00000E+00 0.00000E+00
 1.20000E+00 0.00000E+00
 1.40000E+00 0.00000E+00
 1.60000E+00 0.00000E+00
 1.80000E+00 0.00000E+00
 2.00000E+00 0.00000E+00
 2.20000E+00 0.00000E+00
 2.40000E+00 0.00000E+00
 2.60000E+00 0.00000E+00
 2.80000E+00 0.00000E+00
 3.00000E+00 0.00000E+00
 3.20000E+00 0.00000E+00
 3.40000E+00 0.00000E+00
 3.60000E+00 0.00000E+00
 3.80000E+00 0.00000E+00
 4.00000E+00 1.59021E+01
 4.20000E+00 4.54683E+01
 4.40000E+00 5.89535E+01
 4.60000E+00 6.28396E+01
 4.80000E+00 6.27325E+01
 5.00000E+00 6.09128E+01
 5.50000E+00 5.60683E+01
 6.00000E+00 5.19164E+01
 6.50000E+00 4.82068E+01
 7.00000E+00 4.56780E+01
 7.50000E+00 4.42334E+01
 8.00000E+00 4.10717E+01
 8.50000E+00 3.51006E+01
 9.00000E+00 2.79959E+01
 9.50000E+00 2.10698E+01
 1.00000E+01 1.52892E+01
 1.10000E+01 7.86426E+00
 1.20000E+01 4.48687E+00
 1.30000E+01 3.08178E+00
 1.40000E+01 2.44272E+00
 1.50000E+01 2.12150E+00
 1.60000E+01 1.90307E+00
 1.70000E+01 1.76458E+00
 1.80000E+01 1.63140E+00
 1.90000E+01 1.52015E+00
 2.00000E+01 1.42776E+00
 2.10000E+01 1.33278E+00
 2.20000E+01 1.25936E+00
 2.30000E+01 1.17742E+00
 2.40000E+01 1.09669E+00
 2.50000E+01 1.02253E+00
 2.60000E+01 9.56567E-01
 2.70000E+01 9.02367E-01
 2.80000E+01 8.54988E-01
 2.90000E+01 8.22184E-01
 3.00000E+01 7.81028E-01
