# n + 208Pb: Gamma-ray intensity - 209Pb: Level  9 --> Level  1 - gamma energy    1.712200
# E-initial  =   2.491000 E-final=   0.778800
# E-threshold= 0.00000E+00
# # energies =    67
#    E           xs
 1.00000E-11 0.00000E+00
 2.53000E-08 0.00000E+00
 2.00000E-07 0.00000E+00
 1.00000E-06 1.32807E-04
 1.00000E-03 1.47762E-04
 2.00000E-03 2.61813E-04
 5.00000E-03 3.98482E-04
 1.00000E-02 3.41846E-04
 2.00000E-02 2.24229E-04
 5.00000E-02 1.56476E-04
 1.00000E-01 1.47393E-04
 2.00000E-01 1.46607E-04
 3.00000E-01 1.46500E-04
 4.00000E-01 1.46575E-04
 5.00000E-01 1.50240E-04
 7.50000E-01 1.76586E-04
 1.00000E+00 2.20414E-04
 1.20000E+00 2.65730E-04
 1.40000E+00 3.22323E-04
 1.60000E+00 3.89071E-04
 1.80000E+00 4.70022E-04
 2.00000E+00 5.67555E-04
 2.20000E+00 6.81542E-04
 2.40000E+00 8.15097E-04
 2.60000E+00 9.76890E-04
 2.80000E+00 7.67588E-04
 3.00000E+00 7.42459E-04
 3.20000E+00 7.85301E-04
 3.40000E+00 7.59113E-04
 3.60000E+00 7.52819E-04
 3.80000E+00 7.60418E-04
 4.00000E+00 7.67603E-04
 4.20000E+00 6.92911E-04
 4.40000E+00 5.77184E-04
 4.60000E+00 5.07961E-04
 4.80000E+00 4.78657E-04
 5.00000E+00 4.31981E-04
 5.50000E+00 3.43403E-04
 6.00000E+00 2.68970E-04
 6.50000E+00 2.17822E-04
 7.00000E+00 1.81318E-04
 7.50000E+00 1.68980E-04
 8.00000E+00 1.65468E-04
 8.50000E+00 1.72504E-04
 9.00000E+00 1.94189E-04
 9.50000E+00 2.27929E-04
 1.00000E+01 2.72681E-04
 1.10000E+01 3.98192E-04
 1.20000E+01 5.18189E-04
 1.30000E+01 5.39428E-04
 1.40000E+01 4.80394E-04
 1.50000E+01 4.18341E-04
 1.60000E+01 3.51733E-04
 1.70000E+01 3.21186E-04
 1.80000E+01 2.67908E-04
 1.90000E+01 2.51524E-04
 2.00000E+01 2.39075E-04
 2.10000E+01 2.10690E-04
 2.20000E+01 1.98056E-04
 2.30000E+01 1.81382E-04
 2.40000E+01 1.51673E-04
 2.50000E+01 1.40665E-04
 2.60000E+01 1.23539E-04
 2.70000E+01 1.15078E-04
 2.80000E+01 1.01879E-04
 2.90000E+01 9.42371E-05
 3.00000E+01 8.94048E-05
