# n + 208Pb: Gamma-ray intensity - 208Pb: Level  8 --> Level  2 - gamma energy    0.797727
# E-initial  =   3.995438 E-final=   3.197711
# E-threshold= 4.01482E+00
# # energies =    67
#    E           xs
 1.00000E-11 0.00000E+00
 2.53000E-08 0.00000E+00
 2.00000E-07 0.00000E+00
 1.00000E-06 0.00000E+00
 1.00000E-03 0.00000E+00
 2.00000E-03 0.00000E+00
 5.00000E-03 0.00000E+00
 1.00000E-02 0.00000E+00
 2.00000E-02 0.00000E+00
 5.00000E-02 0.00000E+00
 1.00000E-01 0.00000E+00
 2.00000E-01 0.00000E+00
 3.00000E-01 0.00000E+00
 4.00000E-01 0.00000E+00
 5.00000E-01 0.00000E+00
 7.50000E-01 0.00000E+00
 1.00000E+00 0.00000E+00
 1.20000E+00 0.00000E+00
 1.40000E+00 0.00000E+00
 1.60000E+00 0.00000E+00
 1.80000E+00 0.00000E+00
 2.00000E+00 0.00000E+00
 2.20000E+00 0.00000E+00
 2.40000E+00 0.00000E+00
 2.60000E+00 0.00000E+00
 2.80000E+00 0.00000E+00
 3.00000E+00 0.00000E+00
 3.20000E+00 0.00000E+00
 3.40000E+00 0.00000E+00
 3.60000E+00 0.00000E+00
 3.80000E+00 0.00000E+00
 4.00000E+00 0.00000E+00
 4.20000E+00 1.48229E+01
 4.40000E+00 2.10318E+01
 4.60000E+00 2.34350E+01
 4.80000E+00 2.40768E+01
 5.00000E+00 2.37800E+01
 5.50000E+00 2.20498E+01
 6.00000E+00 2.03220E+01
 6.50000E+00 1.87759E+01
 7.00000E+00 1.76778E+01
 7.50000E+00 1.70214E+01
 8.00000E+00 1.57489E+01
 8.50000E+00 1.34328E+01
 9.00000E+00 1.06976E+01
 9.50000E+00 8.03987E+00
 1.00000E+01 5.82442E+00
 1.10000E+01 2.98431E+00
 1.20000E+01 1.69445E+00
 1.30000E+01 1.15806E+00
 1.40000E+01 9.14820E-01
 1.50000E+01 7.93671E-01
 1.60000E+01 7.11837E-01
 1.70000E+01 6.60330E-01
 1.80000E+01 6.11169E-01
 1.90000E+01 5.70337E-01
 2.00000E+01 5.36336E-01
 2.10000E+01 5.01203E-01
 2.20000E+01 4.74529E-01
 2.30000E+01 4.43965E-01
 2.40000E+01 4.13799E-01
 2.50000E+01 3.86804E-01
 2.60000E+01 3.61583E-01
 2.70000E+01 3.41738E-01
 2.80000E+01 3.23436E-01
 2.90000E+01 3.11490E-01
 3.00000E+01 2.95549E-01
