# n + 208Pb: Gamma-ray intensity - 208Pb: Level  6 --> Level  3 - gamma energy    0.471500
# E-initial  =   3.946578 E-final=   3.475078
# E-threshold= 3.96572E+00
# # energies =    67
#    E           xs
 1.00000E-11 0.00000E+00
 2.53000E-08 0.00000E+00
 2.00000E-07 0.00000E+00
 1.00000E-06 0.00000E+00
 1.00000E-03 0.00000E+00
 2.00000E-03 0.00000E+00
 5.00000E-03 0.00000E+00
 1.00000E-02 0.00000E+00
 2.00000E-02 0.00000E+00
 5.00000E-02 0.00000E+00
 1.00000E-01 0.00000E+00
 2.00000E-01 0.00000E+00
 3.00000E-01 0.00000E+00
 4.00000E-01 0.00000E+00
 5.00000E-01 0.00000E+00
 7.50000E-01 0.00000E+00
 1.00000E+00 0.00000E+00
 1.20000E+00 0.00000E+00
 1.40000E+00 0.00000E+00
 1.60000E+00 0.00000E+00
 1.80000E+00 0.00000E+00
 2.00000E+00 0.00000E+00
 2.20000E+00 0.00000E+00
 2.40000E+00 0.00000E+00
 2.60000E+00 0.00000E+00
 2.80000E+00 0.00000E+00
 3.00000E+00 0.00000E+00
 3.20000E+00 0.00000E+00
 3.40000E+00 0.00000E+00
 3.60000E+00 0.00000E+00
 3.80000E+00 0.00000E+00
 4.00000E+00 4.18113E+00
 4.20000E+00 1.19549E+01
 4.40000E+00 1.55006E+01
 4.60000E+00 1.65224E+01
 4.80000E+00 1.64942E+01
 5.00000E+00 1.60157E+01
 5.50000E+00 1.47420E+01
 6.00000E+00 1.36503E+01
 6.50000E+00 1.26750E+01
 7.00000E+00 1.20101E+01
 7.50000E+00 1.16302E+01
 8.00000E+00 1.07990E+01
 8.50000E+00 9.22897E+00
 9.00000E+00 7.36094E+00
 9.50000E+00 5.53988E+00
 1.00000E+01 4.01999E+00
 1.10000E+01 2.06774E+00
 1.20000E+01 1.17973E+00
 1.30000E+01 8.10291E-01
 1.40000E+01 6.42262E-01
 1.50000E+01 5.57805E-01
 1.60000E+01 5.00372E-01
 1.70000E+01 4.63961E-01
 1.80000E+01 4.28943E-01
 1.90000E+01 3.99692E-01
 2.00000E+01 3.75401E-01
 2.10000E+01 3.50427E-01
 2.20000E+01 3.31122E-01
 2.30000E+01 3.09579E-01
 2.40000E+01 2.88352E-01
 2.50000E+01 2.68854E-01
 2.60000E+01 2.51510E-01
 2.70000E+01 2.37259E-01
 2.80000E+01 2.24801E-01
 2.90000E+01 2.16176E-01
 3.00000E+01 2.05355E-01
