# n + 208Pb: Gamma-ray intensity - 208Pb: Level 14 --> Level  3 - gamma energy    0.705336
# E-initial  =   4.180414 E-final=   3.475078
# E-threshold= 4.20069E+00
# # energies =    67
#    E           xs
 1.00000E-11 0.00000E+00
 2.53000E-08 0.00000E+00
 2.00000E-07 0.00000E+00
 1.00000E-06 0.00000E+00
 1.00000E-03 0.00000E+00
 2.00000E-03 0.00000E+00
 5.00000E-03 0.00000E+00
 1.00000E-02 0.00000E+00
 2.00000E-02 0.00000E+00
 5.00000E-02 0.00000E+00
 1.00000E-01 0.00000E+00
 2.00000E-01 0.00000E+00
 3.00000E-01 0.00000E+00
 4.00000E-01 0.00000E+00
 5.00000E-01 0.00000E+00
 7.50000E-01 0.00000E+00
 1.00000E+00 0.00000E+00
 1.20000E+00 0.00000E+00
 1.40000E+00 0.00000E+00
 1.60000E+00 0.00000E+00
 1.80000E+00 0.00000E+00
 2.00000E+00 0.00000E+00
 2.20000E+00 0.00000E+00
 2.40000E+00 0.00000E+00
 2.60000E+00 0.00000E+00
 2.80000E+00 0.00000E+00
 3.00000E+00 0.00000E+00
 3.20000E+00 0.00000E+00
 3.40000E+00 0.00000E+00
 3.60000E+00 0.00000E+00
 3.80000E+00 0.00000E+00
 4.00000E+00 0.00000E+00
 4.20000E+00 0.00000E+00
 4.40000E+00 3.58815E+00
 4.60000E+00 5.08733E+00
 4.80000E+00 5.91259E+00
 5.00000E+00 6.21405E+00
 5.50000E+00 6.07774E+00
 6.00000E+00 5.78303E+00
 6.50000E+00 5.54027E+00
 7.00000E+00 5.38877E+00
 7.50000E+00 5.36205E+00
 8.00000E+00 5.26534E+00
 8.50000E+00 4.84306E+00
 9.00000E+00 4.08674E+00
 9.50000E+00 3.23767E+00
 1.00000E+01 2.45075E+00
 1.10000E+01 1.33610E+00
 1.20000E+01 7.95393E-01
 1.30000E+01 5.60470E-01
 1.40000E+01 4.56878E-01
 1.50000E+01 4.03840E-01
 1.60000E+01 3.69823E-01
 1.70000E+01 3.48716E-01
 1.80000E+01 3.26196E-01
 1.90000E+01 3.08992E-01
 2.00000E+01 2.93224E-01
 2.10000E+01 2.78197E-01
 2.20000E+01 2.65829E-01
 2.30000E+01 2.51986E-01
 2.40000E+01 2.37571E-01
 2.50000E+01 2.25003E-01
 2.60000E+01 2.12306E-01
 2.70000E+01 2.03089E-01
 2.80000E+01 1.93464E-01
 2.90000E+01 1.86519E-01
 3.00000E+01 1.77043E-01
