# n + 208Pb: Gamma-ray intensity - 208Pb: Level 28 --> Level 11 - gamma energy    0.612803
# E-initial  =   4.698323 E-final=   4.085520
# E-threshold= 4.72111E+00
# # energies =    67
#    E           xs
 1.00000E-11 0.00000E+00
 2.53000E-08 0.00000E+00
 2.00000E-07 0.00000E+00
 1.00000E-06 0.00000E+00
 1.00000E-03 0.00000E+00
 2.00000E-03 0.00000E+00
 5.00000E-03 0.00000E+00
 1.00000E-02 0.00000E+00
 2.00000E-02 0.00000E+00
 5.00000E-02 0.00000E+00
 1.00000E-01 0.00000E+00
 2.00000E-01 0.00000E+00
 3.00000E-01 0.00000E+00
 4.00000E-01 0.00000E+00
 5.00000E-01 0.00000E+00
 7.50000E-01 0.00000E+00
 1.00000E+00 0.00000E+00
 1.20000E+00 0.00000E+00
 1.40000E+00 0.00000E+00
 1.60000E+00 0.00000E+00
 1.80000E+00 0.00000E+00
 2.00000E+00 0.00000E+00
 2.20000E+00 0.00000E+00
 2.40000E+00 0.00000E+00
 2.60000E+00 0.00000E+00
 2.80000E+00 0.00000E+00
 3.00000E+00 0.00000E+00
 3.20000E+00 0.00000E+00
 3.40000E+00 0.00000E+00
 3.60000E+00 0.00000E+00
 3.80000E+00 0.00000E+00
 4.00000E+00 0.00000E+00
 4.20000E+00 0.00000E+00
 4.40000E+00 0.00000E+00
 4.60000E+00 0.00000E+00
 4.80000E+00 1.04511E-01
 5.00000E+00 2.20556E-01
 5.50000E+00 3.05933E-01
 6.00000E+00 2.74182E-01
 6.50000E+00 2.43502E-01
 7.00000E+00 2.17684E-01
 7.50000E+00 1.94360E-01
 8.00000E+00 1.64218E-01
 8.50000E+00 1.30779E-01
 9.00000E+00 1.01376E-01
 9.50000E+00 7.52605E-02
 1.00000E+01 5.56568E-02
 1.10000E+01 3.25306E-02
 1.20000E+01 2.20262E-02
 1.30000E+01 1.77475E-02
 1.40000E+01 1.55936E-02
 1.50000E+01 1.44270E-02
 1.60000E+01 1.35010E-02
 1.70000E+01 1.28628E-02
 1.80000E+01 1.24502E-02
 1.90000E+01 1.20509E-02
 2.00000E+01 1.17627E-02
 2.10000E+01 1.13081E-02
 2.20000E+01 1.10705E-02
 2.30000E+01 1.05787E-02
 2.40000E+01 1.01827E-02
 2.50000E+01 9.96194E-03
 2.60000E+01 9.58653E-03
 2.70000E+01 9.29553E-03
 2.80000E+01 8.96288E-03
 2.90000E+01 8.82602E-03
 3.00000E+01 8.51335E-03
