# n + 208Pb: Gamma-ray intensity - 208Pb: Level 18 --> Level  4 - gamma energy    0.553420
# E-initial  =   4.261871 E-final=   3.708451
# E-threshold= 4.28254E+00
# # energies =    67
#    E           xs
 1.00000E-11 0.00000E+00
 2.53000E-08 0.00000E+00
 2.00000E-07 0.00000E+00
 1.00000E-06 0.00000E+00
 1.00000E-03 0.00000E+00
 2.00000E-03 0.00000E+00
 5.00000E-03 0.00000E+00
 1.00000E-02 0.00000E+00
 2.00000E-02 0.00000E+00
 5.00000E-02 0.00000E+00
 1.00000E-01 0.00000E+00
 2.00000E-01 0.00000E+00
 3.00000E-01 0.00000E+00
 4.00000E-01 0.00000E+00
 5.00000E-01 0.00000E+00
 7.50000E-01 0.00000E+00
 1.00000E+00 0.00000E+00
 1.20000E+00 0.00000E+00
 1.40000E+00 0.00000E+00
 1.60000E+00 0.00000E+00
 1.80000E+00 0.00000E+00
 2.00000E+00 0.00000E+00
 2.20000E+00 0.00000E+00
 2.40000E+00 0.00000E+00
 2.60000E+00 0.00000E+00
 2.80000E+00 0.00000E+00
 3.00000E+00 0.00000E+00
 3.20000E+00 0.00000E+00
 3.40000E+00 0.00000E+00
 3.60000E+00 0.00000E+00
 3.80000E+00 0.00000E+00
 4.00000E+00 0.00000E+00
 4.20000E+00 0.00000E+00
 4.40000E+00 7.29717E+00
 4.60000E+00 1.26442E+01
 4.80000E+00 1.57665E+01
 5.00000E+00 1.69625E+01
 5.50000E+00 1.61490E+01
 6.00000E+00 1.45692E+01
 6.50000E+00 1.32467E+01
 7.00000E+00 1.21579E+01
 7.50000E+00 1.14167E+01
 8.00000E+00 1.03906E+01
 8.50000E+00 8.77723E+00
 9.00000E+00 6.94623E+00
 9.50000E+00 5.19081E+00
 1.00000E+01 3.73956E+00
 1.10000E+01 1.89774E+00
 1.20000E+01 1.06773E+00
 1.30000E+01 7.23399E-01
 1.40000E+01 5.68092E-01
 1.50000E+01 4.92922E-01
 1.60000E+01 4.43366E-01
 1.70000E+01 4.13518E-01
 1.80000E+01 3.84979E-01
 1.90000E+01 3.62815E-01
 2.00000E+01 3.43223E-01
 2.10000E+01 3.22773E-01
 2.20000E+01 3.08579E-01
 2.30000E+01 2.90117E-01
 2.40000E+01 2.71724E-01
 2.50000E+01 2.57659E-01
 2.60000E+01 2.40890E-01
 2.70000E+01 2.29777E-01
 2.80000E+01 2.16898E-01
 2.90000E+01 2.10125E-01
 3.00000E+01 1.98741E-01
