# n + 208Pb: Gamma-ray intensity - 208Pb: Level  3 --> Level  1 - gamma energy    0.860556
# E-initial  =   3.475078 E-final=   2.614522
# E-threshold= 3.49193E+00
# # energies =    67
#    E           xs
 1.00000E-11 0.00000E+00
 2.53000E-08 0.00000E+00
 2.00000E-07 0.00000E+00
 1.00000E-06 0.00000E+00
 1.00000E-03 0.00000E+00
 2.00000E-03 0.00000E+00
 5.00000E-03 0.00000E+00
 1.00000E-02 0.00000E+00
 2.00000E-02 0.00000E+00
 5.00000E-02 0.00000E+00
 1.00000E-01 0.00000E+00
 2.00000E-01 0.00000E+00
 3.00000E-01 0.00000E+00
 4.00000E-01 0.00000E+00
 5.00000E-01 0.00000E+00
 7.50000E-01 0.00000E+00
 1.00000E+00 0.00000E+00
 1.20000E+00 0.00000E+00
 1.40000E+00 0.00000E+00
 1.60000E+00 0.00000E+00
 1.80000E+00 0.00000E+00
 2.00000E+00 0.00000E+00
 2.20000E+00 0.00000E+00
 2.40000E+00 0.00000E+00
 2.60000E+00 0.00000E+00
 2.80000E+00 0.00000E+00
 3.00000E+00 0.00000E+00
 3.20000E+00 0.00000E+00
 3.40000E+00 0.00000E+00
 3.60000E+00 4.81526E+01
 3.80000E+00 9.86350E+01
 4.00000E+00 1.35304E+02
 4.20000E+00 1.52628E+02
 4.40000E+00 1.63329E+02
 4.60000E+00 1.72313E+02
 4.80000E+00 1.80246E+02
 5.00000E+00 1.85817E+02
 5.50000E+00 1.84698E+02
 6.00000E+00 1.75157E+02
 6.50000E+00 1.66996E+02
 7.00000E+00 1.61326E+02
 7.50000E+00 1.57480E+02
 8.00000E+00 1.46971E+02
 8.50000E+00 1.26779E+02
 9.00000E+00 1.02321E+02
 9.50000E+00 7.80688E+01
 1.00000E+01 5.75469E+01
 1.10000E+01 3.07021E+01
 1.20000E+01 1.82396E+01
 1.30000E+01 1.30001E+01
 1.40000E+01 1.05924E+01
 1.50000E+01 9.34634E+00
 1.60000E+01 8.48577E+00
 1.70000E+01 7.92469E+00
 1.80000E+01 7.39399E+00
 1.90000E+01 6.93688E+00
 2.00000E+01 6.56062E+00
 2.10000E+01 6.16650E+00
 2.20000E+01 5.86252E+00
 2.30000E+01 5.51518E+00
 2.40000E+01 5.17819E+00
 2.50000E+01 4.87135E+00
 2.60000E+01 4.60006E+00
 2.70000E+01 4.35965E+00
 2.80000E+01 4.15810E+00
 2.90000E+01 4.01543E+00
 3.00000E+01 3.83109E+00
