# n + 208Pb: Gamma-ray intensity - 208Pb: Level 21 --> Level  3 - gamma energy    0.883592
# E-initial  =   4.358670 E-final=   3.475078
# E-threshold= 4.37981E+00
# # energies =    67
#    E           xs
 1.00000E-11 0.00000E+00
 2.53000E-08 0.00000E+00
 2.00000E-07 0.00000E+00
 1.00000E-06 0.00000E+00
 1.00000E-03 0.00000E+00
 2.00000E-03 0.00000E+00
 5.00000E-03 0.00000E+00
 1.00000E-02 0.00000E+00
 2.00000E-02 0.00000E+00
 5.00000E-02 0.00000E+00
 1.00000E-01 0.00000E+00
 2.00000E-01 0.00000E+00
 3.00000E-01 0.00000E+00
 4.00000E-01 0.00000E+00
 5.00000E-01 0.00000E+00
 7.50000E-01 0.00000E+00
 1.00000E+00 0.00000E+00
 1.20000E+00 0.00000E+00
 1.40000E+00 0.00000E+00
 1.60000E+00 0.00000E+00
 1.80000E+00 0.00000E+00
 2.00000E+00 0.00000E+00
 2.20000E+00 0.00000E+00
 2.40000E+00 0.00000E+00
 2.60000E+00 0.00000E+00
 2.80000E+00 0.00000E+00
 3.00000E+00 0.00000E+00
 3.20000E+00 0.00000E+00
 3.40000E+00 0.00000E+00
 3.60000E+00 0.00000E+00
 3.80000E+00 0.00000E+00
 4.00000E+00 0.00000E+00
 4.20000E+00 0.00000E+00
 4.40000E+00 6.78044E+00
 4.60000E+00 2.40779E+01
 4.80000E+00 3.41151E+01
 5.00000E+00 3.87407E+01
 5.50000E+00 3.80056E+01
 6.00000E+00 3.40941E+01
 6.50000E+00 3.09037E+01
 7.00000E+00 2.81818E+01
 7.50000E+00 2.62304E+01
 8.00000E+00 2.37298E+01
 8.50000E+00 1.99815E+01
 9.00000E+00 1.57769E+01
 9.50000E+00 1.17667E+01
 1.00000E+01 8.45504E+00
 1.10000E+01 4.26153E+00
 1.20000E+01 2.37800E+00
 1.30000E+01 1.59673E+00
 1.40000E+01 1.24588E+00
 1.50000E+01 1.07861E+00
 1.60000E+01 9.70448E-01
 1.70000E+01 9.06677E-01
 1.80000E+01 8.45784E-01
 1.90000E+01 8.00006E-01
 2.00000E+01 7.58449E-01
 2.10000E+01 7.14857E-01
 2.20000E+01 6.85967E-01
 2.30000E+01 6.46092E-01
 2.40000E+01 6.05577E-01
 2.50000E+01 5.77057E-01
 2.60000E+01 5.38865E-01
 2.70000E+01 5.16010E-01
 2.80000E+01 4.85745E-01
 2.90000E+01 4.71661E-01
 3.00000E+01 4.44936E-01
