# n + 208Pb: Gamma-ray intensity - 207Pb: Level  2 --> Level  0 - gamma energy    0.897698
# E-initial  =   0.897698 E-final=   0.000000
# E-threshold= 8.30566E+00
# # energies =    67
#    E           xs
 1.00000E-11 0.00000E+00
 2.53000E-08 0.00000E+00
 2.00000E-07 0.00000E+00
 1.00000E-06 0.00000E+00
 1.00000E-03 0.00000E+00
 2.00000E-03 0.00000E+00
 5.00000E-03 0.00000E+00
 1.00000E-02 0.00000E+00
 2.00000E-02 0.00000E+00
 5.00000E-02 0.00000E+00
 1.00000E-01 0.00000E+00
 2.00000E-01 0.00000E+00
 3.00000E-01 0.00000E+00
 4.00000E-01 0.00000E+00
 5.00000E-01 0.00000E+00
 7.50000E-01 0.00000E+00
 1.00000E+00 0.00000E+00
 1.20000E+00 0.00000E+00
 1.40000E+00 0.00000E+00
 1.60000E+00 0.00000E+00
 1.80000E+00 0.00000E+00
 2.00000E+00 0.00000E+00
 2.20000E+00 0.00000E+00
 2.40000E+00 0.00000E+00
 2.60000E+00 0.00000E+00
 2.80000E+00 0.00000E+00
 3.00000E+00 0.00000E+00
 3.20000E+00 0.00000E+00
 3.40000E+00 0.00000E+00
 3.60000E+00 0.00000E+00
 3.80000E+00 0.00000E+00
 4.00000E+00 0.00000E+00
 4.20000E+00 0.00000E+00
 4.40000E+00 0.00000E+00
 4.60000E+00 0.00000E+00
 4.80000E+00 0.00000E+00
 5.00000E+00 0.00000E+00
 5.50000E+00 0.00000E+00
 6.00000E+00 0.00000E+00
 6.50000E+00 0.00000E+00
 7.00000E+00 0.00000E+00
 7.50000E+00 0.00000E+00
 8.00000E+00 0.00000E+00
 8.50000E+00 1.16050E+00
 9.00000E+00 2.38234E+01
 9.50000E+00 6.98817E+01
 1.00000E+01 1.20851E+02
 1.10000E+01 2.04449E+02
 1.20000E+01 2.36365E+02
 1.30000E+01 2.28015E+02
 1.40000E+01 2.06467E+02
 1.50000E+01 1.86827E+02
 1.60000E+01 1.65032E+02
 1.70000E+01 1.40336E+02
 1.80000E+01 1.16026E+02
 1.90000E+01 9.38983E+01
 2.00000E+01 7.56047E+01
 2.10000E+01 6.09967E+01
 2.20000E+01 5.12249E+01
 2.30000E+01 4.48002E+01
 2.40000E+01 4.03360E+01
 2.50000E+01 3.70118E+01
 2.60000E+01 3.51070E+01
 2.70000E+01 3.31773E+01
 2.80000E+01 3.19421E+01
 2.90000E+01 3.08250E+01
 3.00000E+01 2.96480E+01
