# n + 208Pb: Gamma-ray intensity - 208Pb: Level 12 --> Level  4 - gamma energy    0.416896
# E-initial  =   4.125347 E-final=   3.708451
# E-threshold= 4.14535E+00
# # energies =    67
#    E           xs
 1.00000E-11 0.00000E+00
 2.53000E-08 0.00000E+00
 2.00000E-07 0.00000E+00
 1.00000E-06 0.00000E+00
 1.00000E-03 0.00000E+00
 2.00000E-03 0.00000E+00
 5.00000E-03 0.00000E+00
 1.00000E-02 0.00000E+00
 2.00000E-02 0.00000E+00
 5.00000E-02 0.00000E+00
 1.00000E-01 0.00000E+00
 2.00000E-01 0.00000E+00
 3.00000E-01 0.00000E+00
 4.00000E-01 0.00000E+00
 5.00000E-01 0.00000E+00
 7.50000E-01 0.00000E+00
 1.00000E+00 0.00000E+00
 1.20000E+00 0.00000E+00
 1.40000E+00 0.00000E+00
 1.60000E+00 0.00000E+00
 1.80000E+00 0.00000E+00
 2.00000E+00 0.00000E+00
 2.20000E+00 0.00000E+00
 2.40000E+00 0.00000E+00
 2.60000E+00 0.00000E+00
 2.80000E+00 0.00000E+00
 3.00000E+00 0.00000E+00
 3.20000E+00 0.00000E+00
 3.40000E+00 0.00000E+00
 3.60000E+00 0.00000E+00
 3.80000E+00 0.00000E+00
 4.00000E+00 0.00000E+00
 4.20000E+00 7.37094E-01
 4.40000E+00 1.66172E+00
 4.60000E+00 2.18414E+00
 4.80000E+00 2.46499E+00
 5.00000E+00 2.56895E+00
 5.50000E+00 2.54893E+00
 6.00000E+00 2.48164E+00
 6.50000E+00 2.42916E+00
 7.00000E+00 2.41105E+00
 7.50000E+00 2.43544E+00
 8.00000E+00 2.42280E+00
 8.50000E+00 2.27046E+00
 9.00000E+00 1.97431E+00
 9.50000E+00 1.63275E+00
 1.00000E+01 1.31032E+00
 1.10000E+01 8.43956E-01
 1.20000E+01 6.11439E-01
 1.30000E+01 5.05937E-01
 1.40000E+01 4.53296E-01
 1.50000E+01 4.19963E-01
 1.60000E+01 3.94639E-01
 1.70000E+01 3.75978E-01
 1.80000E+01 3.58416E-01
 1.90000E+01 3.43992E-01
 2.00000E+01 3.30489E-01
 2.10000E+01 3.17140E-01
 2.20000E+01 3.04719E-01
 2.30000E+01 2.91914E-01
 2.40000E+01 2.79373E-01
 2.50000E+01 2.68144E-01
 2.60000E+01 2.57614E-01
 2.70000E+01 2.48826E-01
 2.80000E+01 2.40273E-01
 2.90000E+01 2.32856E-01
 3.00000E+01 2.24536E-01
