# n + 208Pb: Gamma-ray intensity - 208Pb: Level  5 --> Level  4 - gamma energy    0.211515
# E-initial  =   3.919966 E-final=   3.708451
# E-threshold= 3.93898E+00
# # energies =    67
#    E           xs
 1.00000E-11 0.00000E+00
 2.53000E-08 0.00000E+00
 2.00000E-07 0.00000E+00
 1.00000E-06 0.00000E+00
 1.00000E-03 0.00000E+00
 2.00000E-03 0.00000E+00
 5.00000E-03 0.00000E+00
 1.00000E-02 0.00000E+00
 2.00000E-02 0.00000E+00
 5.00000E-02 0.00000E+00
 1.00000E-01 0.00000E+00
 2.00000E-01 0.00000E+00
 3.00000E-01 0.00000E+00
 4.00000E-01 0.00000E+00
 5.00000E-01 0.00000E+00
 7.50000E-01 0.00000E+00
 1.00000E+00 0.00000E+00
 1.20000E+00 0.00000E+00
 1.40000E+00 0.00000E+00
 1.60000E+00 0.00000E+00
 1.80000E+00 0.00000E+00
 2.00000E+00 0.00000E+00
 2.20000E+00 0.00000E+00
 2.40000E+00 0.00000E+00
 2.60000E+00 0.00000E+00
 2.80000E+00 0.00000E+00
 3.00000E+00 0.00000E+00
 3.20000E+00 0.00000E+00
 3.40000E+00 0.00000E+00
 3.60000E+00 0.00000E+00
 3.80000E+00 0.00000E+00
 4.00000E+00 5.61156E+00
 4.20000E+00 1.19093E+01
 4.40000E+00 1.50182E+01
 4.60000E+00 1.64639E+01
 4.80000E+00 1.74856E+01
 5.00000E+00 1.88992E+01
 5.50000E+00 2.34430E+01
 6.00000E+00 2.82111E+01
 6.50000E+00 3.34690E+01
 7.00000E+00 3.94417E+01
 7.50000E+00 4.57410E+01
 8.00000E+00 5.14417E+01
 8.50000E+00 5.49090E+01
 9.00000E+00 5.38603E+01
 9.50000E+00 4.84846E+01
 1.00000E+01 4.05245E+01
 1.10000E+01 2.50625E+01
 1.20000E+01 1.48289E+01
 1.30000E+01 9.96271E+00
 1.40000E+01 7.78617E+00
 1.50000E+01 6.77070E+00
 1.60000E+01 6.24249E+00
 1.70000E+01 5.96904E+00
 1.80000E+01 5.61049E+00
 1.90000E+01 5.29420E+00
 2.00000E+01 5.00036E+00
 2.10000E+01 4.72863E+00
 2.20000E+01 4.57900E+00
 2.30000E+01 4.30991E+00
 2.40000E+01 4.05895E+00
 2.50000E+01 3.78961E+00
 2.60000E+01 3.61503E+00
 2.70000E+01 3.32014E+00
 2.80000E+01 3.17959E+00
 2.90000E+01 3.07061E+00
 3.00000E+01 2.78877E+00
