# n + 208Pb: Gamma-ray intensity - 208Pb: Level 19 --> Level  3 - gamma energy    0.821482
# E-initial  =   4.296560 E-final=   3.475078
# E-threshold= 4.31740E+00
# # energies =    67
#    E           xs
 1.00000E-11 0.00000E+00
 2.53000E-08 0.00000E+00
 2.00000E-07 0.00000E+00
 1.00000E-06 0.00000E+00
 1.00000E-03 0.00000E+00
 2.00000E-03 0.00000E+00
 5.00000E-03 0.00000E+00
 1.00000E-02 0.00000E+00
 2.00000E-02 0.00000E+00
 5.00000E-02 0.00000E+00
 1.00000E-01 0.00000E+00
 2.00000E-01 0.00000E+00
 3.00000E-01 0.00000E+00
 4.00000E-01 0.00000E+00
 5.00000E-01 0.00000E+00
 7.50000E-01 0.00000E+00
 1.00000E+00 0.00000E+00
 1.20000E+00 0.00000E+00
 1.40000E+00 0.00000E+00
 1.60000E+00 0.00000E+00
 1.80000E+00 0.00000E+00
 2.00000E+00 0.00000E+00
 2.20000E+00 0.00000E+00
 2.40000E+00 0.00000E+00
 2.60000E+00 0.00000E+00
 2.80000E+00 0.00000E+00
 3.00000E+00 0.00000E+00
 3.20000E+00 0.00000E+00
 3.40000E+00 0.00000E+00
 3.60000E+00 0.00000E+00
 3.80000E+00 0.00000E+00
 4.00000E+00 0.00000E+00
 4.20000E+00 0.00000E+00
 4.40000E+00 6.34639E+00
 4.60000E+00 1.20921E+01
 4.80000E+00 1.60289E+01
 5.00000E+00 1.80719E+01
 5.50000E+00 1.84991E+01
 6.00000E+00 1.74812E+01
 6.50000E+00 1.66573E+01
 7.00000E+00 1.60546E+01
 7.50000E+00 1.57955E+01
 8.00000E+00 1.53978E+01
 8.50000E+00 1.41199E+01
 9.00000E+00 1.18997E+01
 9.50000E+00 9.42827E+00
 1.00000E+01 7.14438E+00
 1.10000E+01 3.91816E+00
 1.20000E+01 2.35667E+00
 1.30000E+01 1.67695E+00
 1.40000E+01 1.37690E+00
 1.50000E+01 1.22303E+00
 1.60000E+01 1.12435E+00
 1.70000E+01 1.06301E+00
 1.80000E+01 9.98403E-01
 1.90000E+01 9.50495E-01
 2.00000E+01 9.05240E-01
 2.10000E+01 8.61830E-01
 2.20000E+01 8.26657E-01
 2.30000E+01 7.85729E-01
 2.40000E+01 7.43073E-01
 2.50000E+01 7.07992E-01
 2.60000E+01 6.69321E-01
 2.70000E+01 6.43322E-01
 2.80000E+01 6.13266E-01
 2.90000E+01 5.92808E-01
 3.00000E+01 5.63166E-01
