# n + 208Pb: Gamma-ray intensity - 207Pb: Level  4 --> Level  1 - gamma energy    1.770223
# E-initial  =   2.339921 E-final=   0.569698
# E-threshold= 9.75488E+00
# # energies =    67
#    E           xs
 1.00000E-11 0.00000E+00
 2.53000E-08 0.00000E+00
 2.00000E-07 0.00000E+00
 1.00000E-06 0.00000E+00
 1.00000E-03 0.00000E+00
 2.00000E-03 0.00000E+00
 5.00000E-03 0.00000E+00
 1.00000E-02 0.00000E+00
 2.00000E-02 0.00000E+00
 5.00000E-02 0.00000E+00
 1.00000E-01 0.00000E+00
 2.00000E-01 0.00000E+00
 3.00000E-01 0.00000E+00
 4.00000E-01 0.00000E+00
 5.00000E-01 0.00000E+00
 7.50000E-01 0.00000E+00
 1.00000E+00 0.00000E+00
 1.20000E+00 0.00000E+00
 1.40000E+00 0.00000E+00
 1.60000E+00 0.00000E+00
 1.80000E+00 0.00000E+00
 2.00000E+00 0.00000E+00
 2.20000E+00 0.00000E+00
 2.40000E+00 0.00000E+00
 2.60000E+00 0.00000E+00
 2.80000E+00 0.00000E+00
 3.00000E+00 0.00000E+00
 3.20000E+00 0.00000E+00
 3.40000E+00 0.00000E+00
 3.60000E+00 0.00000E+00
 3.80000E+00 0.00000E+00
 4.00000E+00 0.00000E+00
 4.20000E+00 0.00000E+00
 4.40000E+00 0.00000E+00
 4.60000E+00 0.00000E+00
 4.80000E+00 0.00000E+00
 5.00000E+00 0.00000E+00
 5.50000E+00 0.00000E+00
 6.00000E+00 0.00000E+00
 6.50000E+00 0.00000E+00
 7.00000E+00 0.00000E+00
 7.50000E+00 0.00000E+00
 8.00000E+00 0.00000E+00
 8.50000E+00 0.00000E+00
 9.00000E+00 0.00000E+00
 9.50000E+00 0.00000E+00
 1.00000E+01 1.57721E+00
 1.10000E+01 5.97308E+01
 1.20000E+01 1.67525E+02
 1.30000E+01 2.52783E+02
 1.40000E+01 2.91219E+02
 1.50000E+01 3.00904E+02
 1.60000E+01 2.91346E+02
 1.70000E+01 2.59196E+02
 1.80000E+01 2.12397E+02
 1.90000E+01 1.64394E+02
 2.00000E+01 1.24671E+02
 2.10000E+01 9.58816E+01
 2.20000E+01 7.75124E+01
 2.30000E+01 6.63094E+01
 2.40000E+01 5.90403E+01
 2.50000E+01 5.41264E+01
 2.60000E+01 5.10633E+01
 2.70000E+01 4.80841E+01
 2.80000E+01 4.63811E+01
 2.90000E+01 4.46509E+01
 3.00000E+01 4.28183E+01
