# n + 208Pb: Gamma-ray intensity - 208Pb: Level 21 --> Level  8 - gamma energy    0.363232
# E-initial  =   4.358670 E-final=   3.995438
# E-threshold= 4.37981E+00
# # energies =    67
#    E           xs
 1.00000E-11 0.00000E+00
 2.53000E-08 0.00000E+00
 2.00000E-07 0.00000E+00
 1.00000E-06 0.00000E+00
 1.00000E-03 0.00000E+00
 2.00000E-03 0.00000E+00
 5.00000E-03 0.00000E+00
 1.00000E-02 0.00000E+00
 2.00000E-02 0.00000E+00
 5.00000E-02 0.00000E+00
 1.00000E-01 0.00000E+00
 2.00000E-01 0.00000E+00
 3.00000E-01 0.00000E+00
 4.00000E-01 0.00000E+00
 5.00000E-01 0.00000E+00
 7.50000E-01 0.00000E+00
 1.00000E+00 0.00000E+00
 1.20000E+00 0.00000E+00
 1.40000E+00 0.00000E+00
 1.60000E+00 0.00000E+00
 1.80000E+00 0.00000E+00
 2.00000E+00 0.00000E+00
 2.20000E+00 0.00000E+00
 2.40000E+00 0.00000E+00
 2.60000E+00 0.00000E+00
 2.80000E+00 0.00000E+00
 3.00000E+00 0.00000E+00
 3.20000E+00 0.00000E+00
 3.40000E+00 0.00000E+00
 3.60000E+00 0.00000E+00
 3.80000E+00 0.00000E+00
 4.00000E+00 0.00000E+00
 4.20000E+00 0.00000E+00
 4.40000E+00 1.89844E-01
 4.60000E+00 6.74153E-01
 4.80000E+00 9.55184E-01
 5.00000E+00 1.08469E+00
 5.50000E+00 1.06411E+00
 6.00000E+00 9.54596E-01
 6.50000E+00 8.65267E-01
 7.00000E+00 7.89057E-01
 7.50000E+00 7.34422E-01
 8.00000E+00 6.64407E-01
 8.50000E+00 5.59458E-01
 9.00000E+00 4.41735E-01
 9.50000E+00 3.29455E-01
 1.00000E+01 2.36731E-01
 1.10000E+01 1.19318E-01
 1.20000E+01 6.65812E-02
 1.30000E+01 4.47066E-02
 1.40000E+01 3.48833E-02
 1.50000E+01 3.02000E-02
 1.60000E+01 2.71714E-02
 1.70000E+01 2.53859E-02
 1.80000E+01 2.36810E-02
 1.90000E+01 2.23992E-02
 2.00000E+01 2.12357E-02
 2.10000E+01 2.00152E-02
 2.20000E+01 1.92063E-02
 2.30000E+01 1.80898E-02
 2.40000E+01 1.69555E-02
 2.50000E+01 1.61569E-02
 2.60000E+01 1.50876E-02
 2.70000E+01 1.44477E-02
 2.80000E+01 1.36003E-02
 2.90000E+01 1.32060E-02
 3.00000E+01 1.24577E-02
