# n + 208Pb: Gamma-ray intensity - 208Pb: Level 28 --> Level 10 - gamma energy    0.647189
# E-initial  =   4.698323 E-final=   4.051134
# E-threshold= 4.72111E+00
# # energies =    67
#    E           xs
 1.00000E-11 0.00000E+00
 2.53000E-08 0.00000E+00
 2.00000E-07 0.00000E+00
 1.00000E-06 0.00000E+00
 1.00000E-03 0.00000E+00
 2.00000E-03 0.00000E+00
 5.00000E-03 0.00000E+00
 1.00000E-02 0.00000E+00
 2.00000E-02 0.00000E+00
 5.00000E-02 0.00000E+00
 1.00000E-01 0.00000E+00
 2.00000E-01 0.00000E+00
 3.00000E-01 0.00000E+00
 4.00000E-01 0.00000E+00
 5.00000E-01 0.00000E+00
 7.50000E-01 0.00000E+00
 1.00000E+00 0.00000E+00
 1.20000E+00 0.00000E+00
 1.40000E+00 0.00000E+00
 1.60000E+00 0.00000E+00
 1.80000E+00 0.00000E+00
 2.00000E+00 0.00000E+00
 2.20000E+00 0.00000E+00
 2.40000E+00 0.00000E+00
 2.60000E+00 0.00000E+00
 2.80000E+00 0.00000E+00
 3.00000E+00 0.00000E+00
 3.20000E+00 0.00000E+00
 3.40000E+00 0.00000E+00
 3.60000E+00 0.00000E+00
 3.80000E+00 0.00000E+00
 4.00000E+00 0.00000E+00
 4.20000E+00 0.00000E+00
 4.40000E+00 0.00000E+00
 4.60000E+00 0.00000E+00
 4.80000E+00 2.64366E-01
 5.00000E+00 5.57909E-01
 5.50000E+00 7.73877E-01
 6.00000E+00 6.93560E-01
 6.50000E+00 6.15953E-01
 7.00000E+00 5.50645E-01
 7.50000E+00 4.91645E-01
 8.00000E+00 4.15399E-01
 8.50000E+00 3.30812E-01
 9.00000E+00 2.56436E-01
 9.50000E+00 1.90376E-01
 1.00000E+01 1.40787E-01
 1.10000E+01 8.22881E-02
 1.20000E+01 5.57167E-02
 1.30000E+01 4.48935E-02
 1.40000E+01 3.94449E-02
 1.50000E+01 3.64940E-02
 1.60000E+01 3.41516E-02
 1.70000E+01 3.25373E-02
 1.80000E+01 3.14937E-02
 1.90000E+01 3.04835E-02
 2.00000E+01 2.97544E-02
 2.10000E+01 2.86046E-02
 2.20000E+01 2.80036E-02
 2.30000E+01 2.67596E-02
 2.40000E+01 2.57578E-02
 2.50000E+01 2.51993E-02
 2.60000E+01 2.42497E-02
 2.70000E+01 2.35136E-02
 2.80000E+01 2.26721E-02
 2.90000E+01 2.23260E-02
 3.00000E+01 2.15350E-02
