# n + 208Pb: Gamma-ray intensity - 208Pb: Level 11 --> Level  0 - gamma energy    4.085520
# E-initial  =   4.085520 E-final=   0.000000
# E-threshold= 4.10533E+00
# # energies =    67
#    E           xs
 1.00000E-11 0.00000E+00
 2.53000E-08 0.00000E+00
 2.00000E-07 0.00000E+00
 1.00000E-06 0.00000E+00
 1.00000E-03 0.00000E+00
 2.00000E-03 0.00000E+00
 5.00000E-03 0.00000E+00
 1.00000E-02 0.00000E+00
 2.00000E-02 0.00000E+00
 5.00000E-02 0.00000E+00
 1.00000E-01 0.00000E+00
 2.00000E-01 0.00000E+00
 3.00000E-01 0.00000E+00
 4.00000E-01 0.00000E+00
 5.00000E-01 0.00000E+00
 7.50000E-01 0.00000E+00
 1.00000E+00 0.00000E+00
 1.20000E+00 0.00000E+00
 1.40000E+00 0.00000E+00
 1.60000E+00 0.00000E+00
 1.80000E+00 0.00000E+00
 2.00000E+00 0.00000E+00
 2.20000E+00 0.00000E+00
 2.40000E+00 0.00000E+00
 2.60000E+00 0.00000E+00
 2.80000E+00 0.00000E+00
 3.00000E+00 0.00000E+00
 3.20000E+00 0.00000E+00
 3.40000E+00 0.00000E+00
 3.60000E+00 0.00000E+00
 3.80000E+00 0.00000E+00
 4.00000E+00 0.00000E+00
 4.20000E+00 3.97874E+01
 4.40000E+00 8.65136E+01
 4.60000E+00 1.04422E+02
 4.80000E+00 1.09040E+02
 5.00000E+00 1.06296E+02
 5.50000E+00 9.43587E+01
 6.00000E+00 8.41318E+01
 6.50000E+00 7.21837E+01
 7.00000E+00 6.24052E+01
 7.50000E+00 5.64471E+01
 8.00000E+00 4.74462E+01
 8.50000E+00 3.70102E+01
 9.00000E+00 2.82947E+01
 9.50000E+00 2.01312E+01
 1.00000E+01 1.43132E+01
 1.10000E+01 7.65741E+00
 1.20000E+01 4.56912E+00
 1.30000E+01 3.46523E+00
 1.40000E+01 2.79384E+00
 1.50000E+01 2.50318E+00
 1.60000E+01 2.26502E+00
 1.70000E+01 2.09138E+00
 1.80000E+01 2.03715E+00
 1.90000E+01 1.85442E+00
 2.00000E+01 1.82078E+00
 2.10000E+01 1.63723E+00
 2.20000E+01 1.61902E+00
 2.30000E+01 1.46936E+00
 2.40000E+01 1.39798E+00
 2.50000E+01 1.37182E+00
 2.60000E+01 1.32251E+00
 2.70000E+01 1.18733E+00
 2.80000E+01 1.14474E+00
 2.90000E+01 1.13829E+00
 3.00000E+01 1.10579E+00
