# n + 208Pb: Gamma-ray intensity - 208Pb: Level 21 --> Level 14 - gamma energy    0.178256
# E-initial  =   4.358670 E-final=   4.180414
# E-threshold= 4.37981E+00
# # energies =    67
#    E           xs
 1.00000E-11 0.00000E+00
 2.53000E-08 0.00000E+00
 2.00000E-07 0.00000E+00
 1.00000E-06 0.00000E+00
 1.00000E-03 0.00000E+00
 2.00000E-03 0.00000E+00
 5.00000E-03 0.00000E+00
 1.00000E-02 0.00000E+00
 2.00000E-02 0.00000E+00
 5.00000E-02 0.00000E+00
 1.00000E-01 0.00000E+00
 2.00000E-01 0.00000E+00
 3.00000E-01 0.00000E+00
 4.00000E-01 0.00000E+00
 5.00000E-01 0.00000E+00
 7.50000E-01 0.00000E+00
 1.00000E+00 0.00000E+00
 1.20000E+00 0.00000E+00
 1.40000E+00 0.00000E+00
 1.60000E+00 0.00000E+00
 1.80000E+00 0.00000E+00
 2.00000E+00 0.00000E+00
 2.20000E+00 0.00000E+00
 2.40000E+00 0.00000E+00
 2.60000E+00 0.00000E+00
 2.80000E+00 0.00000E+00
 3.00000E+00 0.00000E+00
 3.20000E+00 0.00000E+00
 3.40000E+00 0.00000E+00
 3.60000E+00 0.00000E+00
 3.80000E+00 0.00000E+00
 4.00000E+00 0.00000E+00
 4.20000E+00 0.00000E+00
 4.40000E+00 1.42393E-01
 4.60000E+00 5.05650E-01
 4.80000E+00 7.16439E-01
 5.00000E+00 8.13578E-01
 5.50000E+00 7.98141E-01
 6.00000E+00 7.15997E-01
 6.50000E+00 6.48996E-01
 7.00000E+00 5.91834E-01
 7.50000E+00 5.50855E-01
 8.00000E+00 4.98340E-01
 8.50000E+00 4.19623E-01
 9.00000E+00 3.31324E-01
 9.50000E+00 2.47109E-01
 1.00000E+01 1.77561E-01
 1.10000E+01 8.94947E-02
 1.20000E+01 4.99394E-02
 1.30000E+01 3.35323E-02
 1.40000E+01 2.61643E-02
 1.50000E+01 2.26516E-02
 1.60000E+01 2.03800E-02
 1.70000E+01 1.90408E-02
 1.80000E+01 1.77620E-02
 1.90000E+01 1.68006E-02
 2.00000E+01 1.59279E-02
 2.10000E+01 1.50124E-02
 2.20000E+01 1.44057E-02
 2.30000E+01 1.35683E-02
 2.40000E+01 1.27175E-02
 2.50000E+01 1.21186E-02
 2.60000E+01 1.13165E-02
 2.70000E+01 1.08365E-02
 2.80000E+01 1.02009E-02
 2.90000E+01 9.90518E-03
 3.00000E+01 9.34393E-03
