# n + 208Pb: Gamma-ray intensity - 209Pb: Level  7 --> Level  3 - gamma energy    0.856910
# E-initial  =   2.424000 E-final=   1.567090
# E-threshold= 0.00000E+00
# # energies =    67
#    E           xs
 1.00000E-11 0.00000E+00
 2.53000E-08 0.00000E+00
 2.00000E-07 0.00000E+00
 1.00000E-06 2.12852E-03
 1.00000E-03 3.86940E-03
 2.00000E-03 5.61859E-03
 5.00000E-03 7.97324E-03
 1.00000E-02 6.80149E-03
 2.00000E-02 4.49850E-03
 5.00000E-02 3.12333E-03
 1.00000E-01 2.84209E-03
 2.00000E-01 2.83630E-03
 3.00000E-01 2.93222E-03
 4.00000E-01 3.02256E-03
 5.00000E-01 3.15633E-03
 7.50000E-01 3.69564E-03
 1.00000E+00 4.47495E-03
 1.20000E+00 5.27095E-03
 1.40000E+00 6.25431E-03
 1.60000E+00 7.41856E-03
 1.80000E+00 8.84160E-03
 2.00000E+00 1.05455E-02
 2.20000E+00 1.25462E-02
 2.40000E+00 1.48947E-02
 2.60000E+00 1.77554E-02
 2.80000E+00 1.16673E-02
 3.00000E+00 1.06850E-02
 3.20000E+00 1.08815E-02
 3.40000E+00 9.89146E-03
 3.60000E+00 9.41185E-03
 3.80000E+00 8.95236E-03
 4.00000E+00 8.71030E-03
 4.20000E+00 7.55712E-03
 4.40000E+00 6.13643E-03
 4.60000E+00 5.22747E-03
 4.80000E+00 5.22818E-03
 5.00000E+00 4.72691E-03
 5.50000E+00 3.89611E-03
 6.00000E+00 3.28940E-03
 6.50000E+00 3.04531E-03
 7.00000E+00 2.97880E-03
 7.50000E+00 3.26489E-03
 8.00000E+00 3.69428E-03
 8.50000E+00 4.32675E-03
 9.00000E+00 5.29785E-03
 9.50000E+00 6.57045E-03
 1.00000E+01 8.13417E-03
 1.10000E+01 1.18842E-02
 1.20000E+01 1.46755E-02
 1.30000E+01 1.45323E-02
 1.40000E+01 1.28918E-02
 1.50000E+01 1.08661E-02
 1.60000E+01 8.95192E-03
 1.70000E+01 7.84565E-03
 1.80000E+01 6.54192E-03
 1.90000E+01 5.92950E-03
 2.00000E+01 5.49225E-03
 2.10000E+01 4.85019E-03
 2.20000E+01 4.50770E-03
 2.30000E+01 4.12471E-03
 2.40000E+01 3.54135E-03
 2.50000E+01 3.28870E-03
 2.60000E+01 2.94189E-03
 2.70000E+01 2.75546E-03
 2.80000E+01 2.50987E-03
 2.90000E+01 2.32453E-03
 3.00000E+01 2.20310E-03
