# n + 208Pb: Gamma-ray intensity - 208Pb: Level 28 --> Level  3 - gamma energy    1.223245
# E-initial  =   4.698323 E-final=   3.475078
# E-threshold= 4.72111E+00
# # energies =    67
#    E           xs
 1.00000E-11 0.00000E+00
 2.53000E-08 0.00000E+00
 2.00000E-07 0.00000E+00
 1.00000E-06 0.00000E+00
 1.00000E-03 0.00000E+00
 2.00000E-03 0.00000E+00
 5.00000E-03 0.00000E+00
 1.00000E-02 0.00000E+00
 2.00000E-02 0.00000E+00
 5.00000E-02 0.00000E+00
 1.00000E-01 0.00000E+00
 2.00000E-01 0.00000E+00
 3.00000E-01 0.00000E+00
 4.00000E-01 0.00000E+00
 5.00000E-01 0.00000E+00
 7.50000E-01 0.00000E+00
 1.00000E+00 0.00000E+00
 1.20000E+00 0.00000E+00
 1.40000E+00 0.00000E+00
 1.60000E+00 0.00000E+00
 1.80000E+00 0.00000E+00
 2.00000E+00 0.00000E+00
 2.20000E+00 0.00000E+00
 2.40000E+00 0.00000E+00
 2.60000E+00 0.00000E+00
 2.80000E+00 0.00000E+00
 3.00000E+00 0.00000E+00
 3.20000E+00 0.00000E+00
 3.40000E+00 0.00000E+00
 3.60000E+00 0.00000E+00
 3.80000E+00 0.00000E+00
 4.00000E+00 0.00000E+00
 4.20000E+00 0.00000E+00
 4.40000E+00 0.00000E+00
 4.60000E+00 0.00000E+00
 4.80000E+00 6.14804E+00
 5.00000E+00 1.29746E+01
 5.50000E+00 1.79971E+01
 6.00000E+00 1.61293E+01
 6.50000E+00 1.43245E+01
 7.00000E+00 1.28057E+01
 7.50000E+00 1.14336E+01
 8.00000E+00 9.66045E+00
 8.50000E+00 7.69331E+00
 9.00000E+00 5.96363E+00
 9.50000E+00 4.42735E+00
 1.00000E+01 3.27412E+00
 1.10000E+01 1.91368E+00
 1.20000E+01 1.29574E+00
 1.30000E+01 1.04403E+00
 1.40000E+01 9.17322E-01
 1.50000E+01 8.48698E-01
 1.60000E+01 7.94223E-01
 1.70000E+01 7.56683E-01
 1.80000E+01 7.32411E-01
 1.90000E+01 7.08918E-01
 2.00000E+01 6.91963E-01
 2.10000E+01 6.65224E-01
 2.20000E+01 6.51247E-01
 2.30000E+01 6.22316E-01
 2.40000E+01 5.99018E-01
 2.50000E+01 5.86031E-01
 2.60000E+01 5.63947E-01
 2.70000E+01 5.46828E-01
 2.80000E+01 5.27259E-01
 2.90000E+01 5.19208E-01
 3.00000E+01 5.00815E-01
