# n + 208Pb: Gamma-ray intensity - 208Pb: Level 18 --> Level  3 - gamma energy    0.786793
# E-initial  =   4.261871 E-final=   3.475078
# E-threshold= 4.28254E+00
# # energies =    67
#    E           xs
 1.00000E-11 0.00000E+00
 2.53000E-08 0.00000E+00
 2.00000E-07 0.00000E+00
 1.00000E-06 0.00000E+00
 1.00000E-03 0.00000E+00
 2.00000E-03 0.00000E+00
 5.00000E-03 0.00000E+00
 1.00000E-02 0.00000E+00
 2.00000E-02 0.00000E+00
 5.00000E-02 0.00000E+00
 1.00000E-01 0.00000E+00
 2.00000E-01 0.00000E+00
 3.00000E-01 0.00000E+00
 4.00000E-01 0.00000E+00
 5.00000E-01 0.00000E+00
 7.50000E-01 0.00000E+00
 1.00000E+00 0.00000E+00
 1.20000E+00 0.00000E+00
 1.40000E+00 0.00000E+00
 1.60000E+00 0.00000E+00
 1.80000E+00 0.00000E+00
 2.00000E+00 0.00000E+00
 2.20000E+00 0.00000E+00
 2.40000E+00 0.00000E+00
 2.60000E+00 0.00000E+00
 2.80000E+00 0.00000E+00
 3.00000E+00 0.00000E+00
 3.20000E+00 0.00000E+00
 3.40000E+00 0.00000E+00
 3.60000E+00 0.00000E+00
 3.80000E+00 0.00000E+00
 4.00000E+00 0.00000E+00
 4.20000E+00 0.00000E+00
 4.40000E+00 8.63722E+00
 4.60000E+00 1.49662E+01
 4.80000E+00 1.86619E+01
 5.00000E+00 2.00775E+01
 5.50000E+00 1.91146E+01
 6.00000E+00 1.72446E+01
 6.50000E+00 1.56794E+01
 7.00000E+00 1.43905E+01
 7.50000E+00 1.35132E+01
 8.00000E+00 1.22987E+01
 8.50000E+00 1.03891E+01
 9.00000E+00 8.22184E+00
 9.50000E+00 6.14405E+00
 1.00000E+01 4.42629E+00
 1.10000E+01 2.24624E+00
 1.20000E+01 1.26381E+00
 1.30000E+01 8.56244E-01
 1.40000E+01 6.72417E-01
 1.50000E+01 5.83442E-01
 1.60000E+01 5.24785E-01
 1.70000E+01 4.89456E-01
 1.80000E+01 4.55676E-01
 1.90000E+01 4.29442E-01
 2.00000E+01 4.06252E-01
 2.10000E+01 3.82047E-01
 2.20000E+01 3.65247E-01
 2.30000E+01 3.43394E-01
 2.40000E+01 3.21623E-01
 2.50000E+01 3.04975E-01
 2.60000E+01 2.85127E-01
 2.70000E+01 2.71973E-01
 2.80000E+01 2.56729E-01
 2.90000E+01 2.48713E-01
 3.00000E+01 2.35238E-01
