# n + 208Pb: Gamma-ray intensity - 209Pb: Level  4 --> Level  3 - gamma energy    0.465130
# E-initial  =   2.032220 E-final=   1.567090
# E-threshold= 0.00000E+00
# # energies =    67
#    E           xs
 1.00000E-11 0.00000E+00
 2.53000E-08 0.00000E+00
 2.00000E-07 0.00000E+00
 1.00000E-06 3.10567E+02
 1.00000E-03 1.18588E+00
 2.00000E-03 6.78024E-01
 5.00000E-03 3.42597E-01
 1.00000E-02 1.99205E-01
 2.00000E-02 1.10204E-01
 5.00000E-02 5.03298E-02
 1.00000E-01 2.92363E-02
 2.00000E-01 1.84117E-02
 3.00000E-01 1.50684E-02
 4.00000E-01 1.37381E-02
 5.00000E-01 1.32778E-02
 7.50000E-01 1.38891E-02
 1.00000E+00 1.58821E-02
 1.20000E+00 1.82272E-02
 1.40000E+00 2.13265E-02
 1.60000E+00 2.49712E-02
 1.80000E+00 2.95596E-02
 2.00000E+00 3.50154E-02
 2.20000E+00 4.14530E-02
 2.40000E+00 4.90166E-02
 2.60000E+00 5.87606E-02
 2.80000E+00 5.59727E-02
 3.00000E+00 5.69554E-02
 3.20000E+00 6.09191E-02
 3.40000E+00 6.40334E-02
 3.60000E+00 6.86595E-02
 3.80000E+00 7.06178E-02
 4.00000E+00 7.43964E-02
 4.20000E+00 6.97300E-02
 4.40000E+00 5.54789E-02
 4.60000E+00 4.77112E-02
 4.80000E+00 5.23992E-02
 5.00000E+00 4.72390E-02
 5.50000E+00 3.94940E-02
 6.00000E+00 3.46778E-02
 6.50000E+00 3.50417E-02
 7.00000E+00 3.74216E-02
 7.50000E+00 4.45394E-02
 8.00000E+00 5.40768E-02
 8.50000E+00 6.77786E-02
 9.00000E+00 8.67946E-02
 9.50000E+00 1.10166E-01
 1.00000E+01 1.36232E-01
 1.10000E+01 1.91568E-01
 1.20000E+01 2.17423E-01
 1.30000E+01 1.95586E-01
 1.40000E+01 1.63075E-01
 1.50000E+01 1.33240E-01
 1.60000E+01 1.08795E-01
 1.70000E+01 9.28864E-02
 1.80000E+01 7.51143E-02
 1.90000E+01 6.82837E-02
 2.00000E+01 6.17074E-02
 2.10000E+01 5.49995E-02
 2.20000E+01 5.06767E-02
 2.30000E+01 4.66494E-02
 2.40000E+01 4.17938E-02
 2.50000E+01 3.90288E-02
 2.60000E+01 3.58654E-02
 2.70000E+01 3.23121E-02
 2.80000E+01 2.97126E-02
 2.90000E+01 2.81295E-02
 3.00000E+01 2.69500E-02
