# n + 208Pb: Gamma-ray intensity - 208Pb: Level  9 --> Level  2 - gamma energy    0.839732
# E-initial  =   4.037443 E-final=   3.197711
# E-threshold= 4.05702E+00
# # energies =    67
#    E           xs
 1.00000E-11 0.00000E+00
 2.53000E-08 0.00000E+00
 2.00000E-07 0.00000E+00
 1.00000E-06 0.00000E+00
 1.00000E-03 0.00000E+00
 2.00000E-03 0.00000E+00
 5.00000E-03 0.00000E+00
 1.00000E-02 0.00000E+00
 2.00000E-02 0.00000E+00
 5.00000E-02 0.00000E+00
 1.00000E-01 0.00000E+00
 2.00000E-01 0.00000E+00
 3.00000E-01 0.00000E+00
 4.00000E-01 0.00000E+00
 5.00000E-01 0.00000E+00
 7.50000E-01 0.00000E+00
 1.00000E+00 0.00000E+00
 1.20000E+00 0.00000E+00
 1.40000E+00 0.00000E+00
 1.60000E+00 0.00000E+00
 1.80000E+00 0.00000E+00
 2.00000E+00 0.00000E+00
 2.20000E+00 0.00000E+00
 2.40000E+00 0.00000E+00
 2.60000E+00 0.00000E+00
 2.80000E+00 0.00000E+00
 3.00000E+00 0.00000E+00
 3.20000E+00 0.00000E+00
 3.40000E+00 0.00000E+00
 3.60000E+00 0.00000E+00
 3.80000E+00 0.00000E+00
 4.00000E+00 0.00000E+00
 4.20000E+00 2.35451E+00
 4.40000E+00 6.25530E+00
 4.60000E+00 9.00429E+00
 4.80000E+00 1.09355E+01
 5.00000E+00 1.27417E+01
 5.50000E+00 1.89780E+01
 6.00000E+00 2.74074E+01
 6.50000E+00 3.76645E+01
 7.00000E+00 4.97145E+01
 7.50000E+00 6.27521E+01
 8.00000E+00 7.53417E+01
 8.50000E+00 8.56250E+01
 9.00000E+00 8.98003E+01
 9.50000E+00 8.59630E+01
 1.00000E+01 7.57332E+01
 1.10000E+01 5.08753E+01
 1.20000E+01 3.14011E+01
 1.30000E+01 2.15382E+01
 1.40000E+01 1.69490E+01
 1.50000E+01 1.48565E+01
 1.60000E+01 1.37913E+01
 1.70000E+01 1.32786E+01
 1.80000E+01 1.25829E+01
 1.90000E+01 1.19188E+01
 2.00000E+01 1.13099E+01
 2.10000E+01 1.07414E+01
 2.20000E+01 1.04854E+01
 2.30000E+01 9.86956E+00
 2.40000E+01 9.38258E+00
 2.50000E+01 8.74064E+00
 2.60000E+01 8.37079E+00
 2.70000E+01 7.68496E+00
 2.80000E+01 7.35993E+00
 2.90000E+01 7.10866E+00
 3.00000E+01 6.45478E+00
