# n + 208Pb: Gamma-ray intensity - 209Pb: Level  8 --> Level  0 - gamma energy    2.463000
# E-initial  =   2.463000 E-final=   0.000000
# E-threshold= 0.00000E+00
# # energies =    67
#    E           xs
 1.00000E-11 0.00000E+00
 2.53000E-08 0.00000E+00
 2.00000E-07 0.00000E+00
 1.00000E-06 5.63332E-01
 1.00000E-03 8.46908E-02
 2.00000E-03 5.65060E-02
 5.00000E-03 3.81167E-02
 1.00000E-02 2.57793E-02
 2.00000E-02 1.54371E-02
 5.00000E-02 8.55794E-03
 1.00000E-01 6.37367E-03
 2.00000E-01 5.13173E-03
 3.00000E-01 4.65007E-03
 4.00000E-01 4.43588E-03
 5.00000E-01 4.39330E-03
 7.50000E-01 4.73388E-03
 1.00000E+00 5.50197E-03
 1.20000E+00 6.37603E-03
 1.40000E+00 7.51871E-03
 1.60000E+00 8.87346E-03
 1.80000E+00 1.05539E-02
 2.00000E+00 1.25909E-02
 2.20000E+00 1.49796E-02
 2.40000E+00 1.77881E-02
 2.60000E+00 2.12856E-02
 2.80000E+00 1.53643E-02
 3.00000E+00 1.44948E-02
 3.20000E+00 1.49884E-02
 3.40000E+00 1.51967E-02
 3.60000E+00 1.54359E-02
 3.80000E+00 1.52587E-02
 4.00000E+00 1.53819E-02
 4.20000E+00 1.35109E-02
 4.40000E+00 1.07995E-02
 4.60000E+00 9.09039E-03
 4.80000E+00 8.57315E-03
 5.00000E+00 7.35903E-03
 5.50000E+00 5.54740E-03
 6.00000E+00 4.22637E-03
 6.50000E+00 3.62600E-03
 7.00000E+00 3.22047E-03
 7.50000E+00 3.34262E-03
 8.00000E+00 3.53973E-03
 8.50000E+00 3.88271E-03
 9.00000E+00 4.57597E-03
 9.50000E+00 5.55600E-03
 1.00000E+01 6.70328E-03
 1.10000E+01 9.96950E-03
 1.20000E+01 1.32342E-02
 1.30000E+01 1.35838E-02
 1.40000E+01 1.20743E-02
 1.50000E+01 1.06485E-02
 1.60000E+01 9.10995E-03
 1.70000E+01 8.44187E-03
 1.80000E+01 6.86276E-03
 1.90000E+01 6.42968E-03
 2.00000E+01 6.14072E-03
 2.10000E+01 5.44917E-03
 2.20000E+01 5.16553E-03
 2.30000E+01 4.75779E-03
 2.40000E+01 3.98738E-03
 2.50000E+01 3.70944E-03
 2.60000E+01 3.26483E-03
 2.70000E+01 2.96795E-03
 2.80000E+01 2.60594E-03
 2.90000E+01 2.38013E-03
 3.00000E+01 2.24181E-03
