# n + 208Pb: Gamma-ray intensity - 208Pb: Level 12 --> Level  3 - gamma energy    0.650269
# E-initial  =   4.125347 E-final=   3.475078
# E-threshold= 4.14535E+00
# # energies =    67
#    E           xs
 1.00000E-11 0.00000E+00
 2.53000E-08 0.00000E+00
 2.00000E-07 0.00000E+00
 1.00000E-06 0.00000E+00
 1.00000E-03 0.00000E+00
 2.00000E-03 0.00000E+00
 5.00000E-03 0.00000E+00
 1.00000E-02 0.00000E+00
 2.00000E-02 0.00000E+00
 5.00000E-02 0.00000E+00
 1.00000E-01 0.00000E+00
 2.00000E-01 0.00000E+00
 3.00000E-01 0.00000E+00
 4.00000E-01 0.00000E+00
 5.00000E-01 0.00000E+00
 7.50000E-01 0.00000E+00
 1.00000E+00 0.00000E+00
 1.20000E+00 0.00000E+00
 1.40000E+00 0.00000E+00
 1.60000E+00 0.00000E+00
 1.80000E+00 0.00000E+00
 2.00000E+00 0.00000E+00
 2.20000E+00 0.00000E+00
 2.40000E+00 0.00000E+00
 2.60000E+00 0.00000E+00
 2.80000E+00 0.00000E+00
 3.00000E+00 0.00000E+00
 3.20000E+00 0.00000E+00
 3.40000E+00 0.00000E+00
 3.60000E+00 0.00000E+00
 3.80000E+00 0.00000E+00
 4.00000E+00 0.00000E+00
 4.20000E+00 3.72908E+00
 4.40000E+00 8.40690E+00
 4.60000E+00 1.10499E+01
 4.80000E+00 1.24708E+01
 5.00000E+00 1.29967E+01
 5.50000E+00 1.28955E+01
 6.00000E+00 1.25551E+01
 6.50000E+00 1.22895E+01
 7.00000E+00 1.21979E+01
 7.50000E+00 1.23213E+01
 8.00000E+00 1.22574E+01
 8.50000E+00 1.14866E+01
 9.00000E+00 9.98837E+00
 9.50000E+00 8.26036E+00
 1.00000E+01 6.62911E+00
 1.10000E+01 4.26972E+00
 1.20000E+01 3.09337E+00
 1.30000E+01 2.55962E+00
 1.40000E+01 2.29330E+00
 1.50000E+01 2.12467E+00
 1.60000E+01 1.99654E+00
 1.70000E+01 1.90214E+00
 1.80000E+01 1.81329E+00
 1.90000E+01 1.74031E+00
 2.00000E+01 1.67200E+00
 2.10000E+01 1.60447E+00
 2.20000E+01 1.54162E+00
 2.30000E+01 1.47684E+00
 2.40000E+01 1.41339E+00
 2.50000E+01 1.35658E+00
 2.60000E+01 1.30331E+00
 2.70000E+01 1.25885E+00
 2.80000E+01 1.21558E+00
 2.90000E+01 1.17806E+00
 3.00000E+01 1.13597E+00
