# n + 208Pb: Gamma-ray intensity - 208Pb: Level  1 --> Level  0 - gamma energy    2.614522
# E-initial  =   2.614522 E-final=   0.000000
# E-threshold= 2.62720E+00
# # energies =    67
#    E           xs
 1.00000E-11 0.00000E+00
 2.53000E-08 0.00000E+00
 2.00000E-07 0.00000E+00
 1.00000E-06 0.00000E+00
 1.00000E-03 0.00000E+00
 2.00000E-03 0.00000E+00
 5.00000E-03 0.00000E+00
 1.00000E-02 0.00000E+00
 2.00000E-02 0.00000E+00
 5.00000E-02 0.00000E+00
 1.00000E-01 0.00000E+00
 2.00000E-01 0.00000E+00
 3.00000E-01 0.00000E+00
 4.00000E-01 0.00000E+00
 5.00000E-01 0.00000E+00
 7.50000E-01 0.00000E+00
 1.00000E+00 0.00000E+00
 1.20000E+00 0.00000E+00
 1.40000E+00 0.00000E+00
 1.60000E+00 0.00000E+00
 1.80000E+00 0.00000E+00
 2.00000E+00 0.00000E+00
 2.20000E+00 0.00000E+00
 2.40000E+00 0.00000E+00
 2.60000E+00 0.00000E+00
 2.80000E+00 3.15723E+02
 3.00000E+00 5.12990E+02
 3.20000E+00 6.61899E+02
 3.40000E+00 8.71794E+02
 3.60000E+00 1.06818E+03
 3.80000E+00 1.25669E+03
 4.00000E+00 1.43931E+03
 4.20000E+00 1.63294E+03
 4.40000E+00 1.80548E+03
 4.60000E+00 1.93455E+03
 4.80000E+00 2.02768E+03
 5.00000E+00 2.10005E+03
 5.50000E+00 2.19827E+03
 6.00000E+00 2.22796E+03
 6.50000E+00 2.24505E+03
 7.00000E+00 2.26777E+03
 7.50000E+00 2.30097E+03
 8.00000E+00 2.24188E+03
 8.50000E+00 2.05734E+03
 9.00000E+00 1.78428E+03
 9.50000E+00 1.46617E+03
 1.00000E+01 1.16255E+03
 1.10000E+01 7.06703E+02
 1.20000E+01 4.53957E+02
 1.30000E+01 3.37773E+02
 1.40000E+01 2.82529E+02
 1.50000E+01 2.54217E+02
 1.60000E+01 2.36192E+02
 1.70000E+01 2.24829E+02
 1.80000E+01 2.13465E+02
 1.90000E+01 2.02212E+02
 2.00000E+01 1.93296E+02
 2.10000E+01 1.83978E+02
 2.20000E+01 1.77639E+02
 2.30000E+01 1.68802E+02
 2.40000E+01 1.60796E+02
 2.50000E+01 1.52782E+02
 2.60000E+01 1.46322E+02
 2.70000E+01 1.38595E+02
 2.80000E+01 1.33215E+02
 2.90000E+01 1.29225E+02
 3.00000E+01 1.22621E+02
