# n + 208Pb: Gamma-ray intensity - 208Pb: Level 26 --> Level  9 - gamma energy    0.573305
# E-initial  =   4.610748 E-final=   4.037443
# E-threshold= 4.63311E+00
# # energies =    67
#    E           xs
 1.00000E-11 0.00000E+00
 2.53000E-08 0.00000E+00
 2.00000E-07 0.00000E+00
 1.00000E-06 0.00000E+00
 1.00000E-03 0.00000E+00
 2.00000E-03 0.00000E+00
 5.00000E-03 0.00000E+00
 1.00000E-02 0.00000E+00
 2.00000E-02 0.00000E+00
 5.00000E-02 0.00000E+00
 1.00000E-01 0.00000E+00
 2.00000E-01 0.00000E+00
 3.00000E-01 0.00000E+00
 4.00000E-01 0.00000E+00
 5.00000E-01 0.00000E+00
 7.50000E-01 0.00000E+00
 1.00000E+00 0.00000E+00
 1.20000E+00 0.00000E+00
 1.40000E+00 0.00000E+00
 1.60000E+00 0.00000E+00
 1.80000E+00 0.00000E+00
 2.00000E+00 0.00000E+00
 2.20000E+00 0.00000E+00
 2.40000E+00 0.00000E+00
 2.60000E+00 0.00000E+00
 2.80000E+00 0.00000E+00
 3.00000E+00 0.00000E+00
 3.20000E+00 0.00000E+00
 3.40000E+00 0.00000E+00
 3.60000E+00 0.00000E+00
 3.80000E+00 0.00000E+00
 4.00000E+00 0.00000E+00
 4.20000E+00 0.00000E+00
 4.40000E+00 0.00000E+00
 4.60000E+00 0.00000E+00
 4.80000E+00 1.26240E-02
 5.00000E+00 3.34770E-02
 5.50000E+00 1.31799E-01
 6.00000E+00 3.12112E-01
 6.50000E+00 5.45453E-01
 7.00000E+00 8.15605E-01
 7.50000E+00 1.15497E+00
 8.00000E+00 1.56018E+00
 8.50000E+00 1.99338E+00
 9.00000E+00 2.36218E+00
 9.50000E+00 2.55265E+00
 1.00000E+01 2.52025E+00
 1.10000E+01 2.03762E+00
 1.20000E+01 1.39920E+00
 1.30000E+01 9.95988E-01
 1.40000E+01 7.85207E-01
 1.50000E+01 6.95480E-01
 1.60000E+01 6.59290E-01
 1.70000E+01 6.50987E-01
 1.80000E+01 6.35525E-01
 1.90000E+01 6.00539E-01
 2.00000E+01 5.83958E-01
 2.10000E+01 5.69363E-01
 2.20000E+01 5.70731E-01
 2.30000E+01 5.46739E-01
 2.40000E+01 5.30271E-01
 2.50000E+01 5.01920E-01
 2.60000E+01 4.80425E-01
 2.70000E+01 4.52226E-01
 2.80000E+01 4.27330E-01
 2.90000E+01 4.15031E-01
 3.00000E+01 3.79274E-01
