# n + 208Pb: Gamma-ray intensity - 209Pb: Level  2 --> Level  1 - gamma energy    0.644200
# E-initial  =   1.423000 E-final=   0.778800
# E-threshold= 0.00000E+00
# # energies =    67
#    E           xs
 1.00000E-11 0.00000E+00
 2.53000E-08 0.00000E+00
 2.00000E-07 0.00000E+00
 1.00000E-06 0.00000E+00
 1.00000E-03 0.00000E+00
 2.00000E-03 0.00000E+00
 5.00000E-03 0.00000E+00
 1.00000E-02 0.00000E+00
 2.00000E-02 0.00000E+00
 5.00000E-02 3.67339E-12
 1.00000E-01 3.44416E-10
 2.00000E-01 1.23362E-08
 3.00000E-01 1.16228E-06
 4.00000E-01 3.99245E-06
 5.00000E-01 9.00797E-06
 7.50000E-01 2.72187E-05
 1.00000E+00 3.10755E-04
 1.20000E+00 6.04545E-04
 1.40000E+00 1.09774E-03
 1.60000E+00 1.69477E-03
 1.80000E+00 2.46885E-03
 2.00000E+00 3.60499E-03
 2.20000E+00 5.02446E-03
 2.40000E+00 6.89823E-03
 2.60000E+00 9.35991E-03
 2.80000E+00 1.15390E-02
 3.00000E+00 1.25515E-02
 3.20000E+00 1.36718E-02
 3.40000E+00 6.63251E-03
 3.60000E+00 4.82626E-03
 3.80000E+00 3.84651E-03
 4.00000E+00 2.86957E-03
 4.20000E+00 1.56679E-03
 4.40000E+00 1.20676E-03
 4.60000E+00 1.04725E-03
 4.80000E+00 2.09363E-03
 5.00000E+00 2.05939E-03
 5.50000E+00 2.42089E-03
 6.00000E+00 2.86647E-03
 6.50000E+00 3.50932E-03
 7.00000E+00 4.36332E-03
 7.50000E+00 5.26970E-03
 8.00000E+00 6.57328E-03
 8.50000E+00 8.20623E-03
 9.00000E+00 1.01633E-02
 9.50000E+00 1.24297E-02
 1.00000E+01 1.49029E-02
 1.10000E+01 1.93343E-02
 1.20000E+01 2.24475E-02
 1.30000E+01 2.53228E-02
 1.40000E+01 2.82067E-02
 1.50000E+01 2.98135E-02
 1.60000E+01 2.90762E-02
 1.70000E+01 2.64583E-02
 1.80000E+01 2.27001E-02
 1.90000E+01 1.89630E-02
 2.00000E+01 1.58993E-02
 2.10000E+01 1.33119E-02
 2.20000E+01 1.14259E-02
 2.30000E+01 9.82628E-03
 2.40000E+01 8.47245E-03
 2.50000E+01 7.63861E-03
 2.60000E+01 6.84382E-03
 2.70000E+01 6.18334E-03
 2.80000E+01 5.70733E-03
 2.90000E+01 5.36732E-03
 3.00000E+01 4.98621E-03
