# n + 208Pb: Gamma-ray intensity - 209Pb: Level  9 --> Level  0 - gamma energy    2.491000
# E-initial  =   2.491000 E-final=   0.000000
# E-threshold= 0.00000E+00
# # energies =    67
#    E           xs
 1.00000E-11 0.00000E+00
 2.53000E-08 0.00000E+00
 2.00000E-07 0.00000E+00
 1.00000E-06 4.29377E-03
 1.00000E-03 4.77729E-03
 2.00000E-03 8.46470E-03
 5.00000E-03 1.28833E-02
 1.00000E-02 1.10523E-02
 2.00000E-02 7.24954E-03
 5.00000E-02 5.05902E-03
 1.00000E-01 4.76538E-03
 2.00000E-01 4.73996E-03
 3.00000E-01 4.73650E-03
 4.00000E-01 4.73891E-03
 5.00000E-01 4.85741E-03
 7.50000E-01 5.70921E-03
 1.00000E+00 7.12622E-03
 1.20000E+00 8.59131E-03
 1.40000E+00 1.04210E-02
 1.60000E+00 1.25791E-02
 1.80000E+00 1.51963E-02
 2.00000E+00 1.83496E-02
 2.20000E+00 2.20350E-02
 2.40000E+00 2.63529E-02
 2.60000E+00 3.15839E-02
 2.80000E+00 2.48169E-02
 3.00000E+00 2.40045E-02
 3.20000E+00 2.53896E-02
 3.40000E+00 2.45429E-02
 3.60000E+00 2.43394E-02
 3.80000E+00 2.45851E-02
 4.00000E+00 2.48174E-02
 4.20000E+00 2.24025E-02
 4.40000E+00 1.86610E-02
 4.60000E+00 1.64229E-02
 4.80000E+00 1.54755E-02
 5.00000E+00 1.39664E-02
 5.50000E+00 1.11026E-02
 6.00000E+00 8.69608E-03
 6.50000E+00 7.04240E-03
 7.00000E+00 5.86220E-03
 7.50000E+00 5.46331E-03
 8.00000E+00 5.34974E-03
 8.50000E+00 5.57723E-03
 9.00000E+00 6.27832E-03
 9.50000E+00 7.36918E-03
 1.00000E+01 8.81605E-03
 1.10000E+01 1.28740E-02
 1.20000E+01 1.67536E-02
 1.30000E+01 1.74403E-02
 1.40000E+01 1.55316E-02
 1.50000E+01 1.35254E-02
 1.60000E+01 1.13719E-02
 1.70000E+01 1.03843E-02
 1.80000E+01 8.66174E-03
 1.90000E+01 8.13204E-03
 2.00000E+01 7.72954E-03
 2.10000E+01 6.81184E-03
 2.20000E+01 6.40335E-03
 2.30000E+01 5.86426E-03
 2.40000E+01 4.90374E-03
 2.50000E+01 4.54783E-03
 2.60000E+01 3.99414E-03
 2.70000E+01 3.72060E-03
 2.80000E+01 3.29386E-03
 2.90000E+01 3.04678E-03
 3.00000E+01 2.89055E-03
