# n + 208Pb: Gamma-ray intensity - 208Pb: Level 11 --> Level  1 - gamma energy    1.470998
# E-initial  =   4.085520 E-final=   2.614522
# E-threshold= 4.10533E+00
# # energies =    67
#    E           xs
 1.00000E-11 0.00000E+00
 2.53000E-08 0.00000E+00
 2.00000E-07 0.00000E+00
 1.00000E-06 0.00000E+00
 1.00000E-03 0.00000E+00
 2.00000E-03 0.00000E+00
 5.00000E-03 0.00000E+00
 1.00000E-02 0.00000E+00
 2.00000E-02 0.00000E+00
 5.00000E-02 0.00000E+00
 1.00000E-01 0.00000E+00
 2.00000E-01 0.00000E+00
 3.00000E-01 0.00000E+00
 4.00000E-01 0.00000E+00
 5.00000E-01 0.00000E+00
 7.50000E-01 0.00000E+00
 1.00000E+00 0.00000E+00
 1.20000E+00 0.00000E+00
 1.40000E+00 0.00000E+00
 1.60000E+00 0.00000E+00
 1.80000E+00 0.00000E+00
 2.00000E+00 0.00000E+00
 2.20000E+00 0.00000E+00
 2.40000E+00 0.00000E+00
 2.60000E+00 0.00000E+00
 2.80000E+00 0.00000E+00
 3.00000E+00 0.00000E+00
 3.20000E+00 0.00000E+00
 3.40000E+00 0.00000E+00
 3.60000E+00 0.00000E+00
 3.80000E+00 0.00000E+00
 4.00000E+00 0.00000E+00
 4.20000E+00 1.83024E-01
 4.40000E+00 3.97968E-01
 4.60000E+00 4.80346E-01
 4.80000E+00 5.01589E-01
 5.00000E+00 4.88967E-01
 5.50000E+00 4.34056E-01
 6.00000E+00 3.87012E-01
 6.50000E+00 3.32050E-01
 7.00000E+00 2.87068E-01
 7.50000E+00 2.59660E-01
 8.00000E+00 2.18256E-01
 8.50000E+00 1.70249E-01
 9.00000E+00 1.30158E-01
 9.50000E+00 9.26050E-02
 1.00000E+01 6.58418E-02
 1.10000E+01 3.52246E-02
 1.20000E+01 2.10182E-02
 1.30000E+01 1.59403E-02
 1.40000E+01 1.28518E-02
 1.50000E+01 1.15148E-02
 1.60000E+01 1.04192E-02
 1.70000E+01 9.62047E-03
 1.80000E+01 9.37101E-03
 1.90000E+01 8.53043E-03
 2.00000E+01 8.37571E-03
 2.10000E+01 7.53138E-03
 2.20000E+01 7.44761E-03
 2.30000E+01 6.75913E-03
 2.40000E+01 6.43081E-03
 2.50000E+01 6.31048E-03
 2.60000E+01 6.08362E-03
 2.70000E+01 5.46178E-03
 2.80000E+01 5.26589E-03
 2.90000E+01 5.23622E-03
 3.00000E+01 5.08671E-03
