# n + 208Pb: Gamma-ray intensity - 208Pb: Level 23 --> Level  2 - gamma energy    1.225936
# E-initial  =   4.423647 E-final=   3.197711
# E-threshold= 4.44510E+00
# # energies =    67
#    E           xs
 1.00000E-11 0.00000E+00
 2.53000E-08 0.00000E+00
 2.00000E-07 0.00000E+00
 1.00000E-06 0.00000E+00
 1.00000E-03 0.00000E+00
 2.00000E-03 0.00000E+00
 5.00000E-03 0.00000E+00
 1.00000E-02 0.00000E+00
 2.00000E-02 0.00000E+00
 5.00000E-02 0.00000E+00
 1.00000E-01 0.00000E+00
 2.00000E-01 0.00000E+00
 3.00000E-01 0.00000E+00
 4.00000E-01 0.00000E+00
 5.00000E-01 0.00000E+00
 7.50000E-01 0.00000E+00
 1.00000E+00 0.00000E+00
 1.20000E+00 0.00000E+00
 1.40000E+00 0.00000E+00
 1.60000E+00 0.00000E+00
 1.80000E+00 0.00000E+00
 2.00000E+00 0.00000E+00
 2.20000E+00 0.00000E+00
 2.40000E+00 0.00000E+00
 2.60000E+00 0.00000E+00
 2.80000E+00 0.00000E+00
 3.00000E+00 0.00000E+00
 3.20000E+00 0.00000E+00
 3.40000E+00 0.00000E+00
 3.60000E+00 0.00000E+00
 3.80000E+00 0.00000E+00
 4.00000E+00 0.00000E+00
 4.20000E+00 0.00000E+00
 4.40000E+00 0.00000E+00
 4.60000E+00 8.82089E+00
 4.80000E+00 1.84619E+01
 5.00000E+00 2.42804E+01
 5.50000E+00 3.18200E+01
 6.00000E+00 3.70970E+01
 6.50000E+00 3.95968E+01
 7.00000E+00 4.05767E+01
 7.50000E+00 4.32100E+01
 8.00000E+00 4.69904E+01
 8.50000E+00 4.89838E+01
 9.00000E+00 4.62698E+01
 9.50000E+00 3.99188E+01
 1.00000E+01 3.20829E+01
 1.10000E+01 1.83643E+01
 1.20000E+01 1.05580E+01
 1.30000E+01 7.06551E+00
 1.40000E+01 5.54922E+00
 1.50000E+01 4.84152E+00
 1.60000E+01 4.44508E+00
 1.70000E+01 4.22363E+00
 1.80000E+01 3.96389E+00
 1.90000E+01 3.74561E+00
 2.00000E+01 3.54390E+00
 2.10000E+01 3.37338E+00
 2.20000E+01 3.23744E+00
 2.30000E+01 3.08246E+00
 2.40000E+01 2.88703E+00
 2.50000E+01 2.74198E+00
 2.60000E+01 2.62089E+00
 2.70000E+01 2.43592E+00
 2.80000E+01 2.32556E+00
 2.90000E+01 2.27095E+00
 3.00000E+01 2.11887E+00
