# n + 208Pb: Gamma-ray intensity - 209Pb: Level  6 --> Level  4 - gamma energy    0.286780
# E-initial  =   2.319000 E-final=   2.032220
# E-threshold= 0.00000E+00
# # energies =    67
#    E           xs
 1.00000E-11 0.00000E+00
 2.53000E-08 0.00000E+00
 2.00000E-07 0.00000E+00
 1.00000E-06 7.87784E+01
 1.00000E-03 2.73647E-01
 2.00000E-03 1.63555E-01
 5.00000E-03 9.35081E-02
 1.00000E-02 5.88582E-02
 2.00000E-02 3.40658E-02
 5.00000E-02 1.68450E-02
 1.00000E-01 1.04739E-02
 2.00000E-01 6.87612E-03
 3.00000E-01 5.70415E-03
 4.00000E-01 5.24057E-03
 5.00000E-01 5.09167E-03
 7.50000E-01 5.37984E-03
 1.00000E+00 6.19820E-03
 1.20000E+00 7.16262E-03
 1.40000E+00 8.42028E-03
 1.60000E+00 9.89901E-03
 1.80000E+00 1.17785E-02
 2.00000E+00 1.40096E-02
 2.20000E+00 1.66369E-02
 2.40000E+00 1.97395E-02
 2.60000E+00 2.37204E-02
 2.80000E+00 2.05920E-02
 3.00000E+00 2.04554E-02
 3.20000E+00 2.17045E-02
 3.40000E+00 2.25633E-02
 3.60000E+00 2.37896E-02
 3.80000E+00 2.38903E-02
 4.00000E+00 2.46146E-02
 4.20000E+00 2.21196E-02
 4.40000E+00 1.76493E-02
 4.60000E+00 1.50481E-02
 4.80000E+00 1.53791E-02
 5.00000E+00 1.37301E-02
 5.50000E+00 1.10685E-02
 6.00000E+00 9.28768E-03
 6.50000E+00 9.04795E-03
 7.00000E+00 9.28957E-03
 7.50000E+00 1.07859E-02
 8.00000E+00 1.28430E-02
 8.50000E+00 1.57378E-02
 9.00000E+00 2.00157E-02
 9.50000E+00 2.53831E-02
 1.00000E+01 3.14728E-02
 1.10000E+01 4.54442E-02
 1.20000E+01 5.36113E-02
 1.30000E+01 4.93218E-02
 1.40000E+01 4.26118E-02
 1.50000E+01 3.51475E-02
 1.60000E+01 2.88164E-02
 1.70000E+01 2.47483E-02
 1.80000E+01 1.98529E-02
 1.90000E+01 1.78884E-02
 2.00000E+01 1.62196E-02
 2.10000E+01 1.44382E-02
 2.20000E+01 1.33453E-02
 2.30000E+01 1.22805E-02
 2.40000E+01 1.09016E-02
 2.50000E+01 1.01830E-02
 2.60000E+01 9.31208E-03
 2.70000E+01 8.40276E-03
 2.80000E+01 7.62869E-03
 2.90000E+01 7.12469E-03
 3.00000E+01 6.78359E-03
