# n + 208Pb: Gamma-ray intensity - 208Pb: Level 10 --> Level  1 - gamma energy    1.436612
# E-initial  =   4.051134 E-final=   2.614522
# E-threshold= 4.07078E+00
# # energies =    67
#    E           xs
 1.00000E-11 0.00000E+00
 2.53000E-08 0.00000E+00
 2.00000E-07 0.00000E+00
 1.00000E-06 0.00000E+00
 1.00000E-03 0.00000E+00
 2.00000E-03 0.00000E+00
 5.00000E-03 0.00000E+00
 1.00000E-02 0.00000E+00
 2.00000E-02 0.00000E+00
 5.00000E-02 0.00000E+00
 1.00000E-01 0.00000E+00
 2.00000E-01 0.00000E+00
 3.00000E-01 0.00000E+00
 4.00000E-01 0.00000E+00
 5.00000E-01 0.00000E+00
 7.50000E-01 0.00000E+00
 1.00000E+00 0.00000E+00
 1.20000E+00 0.00000E+00
 1.40000E+00 0.00000E+00
 1.60000E+00 0.00000E+00
 1.80000E+00 0.00000E+00
 2.00000E+00 0.00000E+00
 2.20000E+00 0.00000E+00
 2.40000E+00 0.00000E+00
 2.60000E+00 0.00000E+00
 2.80000E+00 0.00000E+00
 3.00000E+00 0.00000E+00
 3.20000E+00 0.00000E+00
 3.40000E+00 0.00000E+00
 3.60000E+00 0.00000E+00
 3.80000E+00 0.00000E+00
 4.00000E+00 0.00000E+00
 4.20000E+00 5.11993E+01
 4.40000E+00 8.08810E+01
 4.60000E+00 9.25493E+01
 4.80000E+00 9.52277E+01
 5.00000E+00 9.27620E+01
 5.50000E+00 8.22022E+01
 6.00000E+00 7.37248E+01
 6.50000E+00 6.66856E+01
 7.00000E+00 6.13437E+01
 7.50000E+00 5.76706E+01
 8.00000E+00 5.06023E+01
 8.50000E+00 4.09340E+01
 9.00000E+00 3.16990E+01
 9.50000E+00 2.31613E+01
 1.00000E+01 1.67001E+01
 1.10000E+01 9.04820E+00
 1.20000E+01 5.60077E+00
 1.30000E+01 4.23605E+00
 1.40000E+01 3.56299E+00
 1.50000E+01 3.20694E+00
 1.60000E+01 2.93137E+00
 1.70000E+01 2.73729E+00
 1.80000E+01 2.60913E+00
 1.90000E+01 2.45324E+00
 2.00000E+01 2.35957E+00
 2.10000E+01 2.21308E+00
 2.20000E+01 2.13212E+00
 2.30000E+01 1.99623E+00
 2.40000E+01 1.90174E+00
 2.50000E+01 1.82149E+00
 2.60000E+01 1.74490E+00
 2.70000E+01 1.64901E+00
 2.80000E+01 1.59003E+00
 2.90000E+01 1.55394E+00
 3.00000E+01 1.50102E+00
