# n + 208Pb: Gamma-ray intensity - 209Pb: Level  8 --> Level  3 - gamma energy    0.895910
# E-initial  =   2.463000 E-final=   1.567090
# E-threshold= 0.00000E+00
# # energies =    67
#    E           xs
 1.00000E-11 0.00000E+00
 2.53000E-08 0.00000E+00
 2.00000E-07 0.00000E+00
 1.00000E-06 1.40847E-01
 1.00000E-03 2.11748E-02
 2.00000E-03 1.41279E-02
 5.00000E-03 9.53011E-03
 1.00000E-02 6.44546E-03
 2.00000E-02 3.85965E-03
 5.00000E-02 2.13970E-03
 1.00000E-01 1.59358E-03
 2.00000E-01 1.28306E-03
 3.00000E-01 1.16263E-03
 4.00000E-01 1.10908E-03
 5.00000E-01 1.09843E-03
 7.50000E-01 1.18359E-03
 1.00000E+00 1.37563E-03
 1.20000E+00 1.59417E-03
 1.40000E+00 1.87986E-03
 1.60000E+00 2.21859E-03
 1.80000E+00 2.63874E-03
 2.00000E+00 3.14803E-03
 2.20000E+00 3.74527E-03
 2.40000E+00 4.44747E-03
 2.60000E+00 5.32194E-03
 2.80000E+00 3.84145E-03
 3.00000E+00 3.62405E-03
 3.20000E+00 3.74747E-03
 3.40000E+00 3.79956E-03
 3.60000E+00 3.85935E-03
 3.80000E+00 3.81505E-03
 4.00000E+00 3.84587E-03
 4.20000E+00 3.37806E-03
 4.40000E+00 2.70015E-03
 4.60000E+00 2.27282E-03
 4.80000E+00 2.14350E-03
 5.00000E+00 1.83994E-03
 5.50000E+00 1.38699E-03
 6.00000E+00 1.05670E-03
 6.50000E+00 9.06591E-04
 7.00000E+00 8.05197E-04
 7.50000E+00 8.35738E-04
 8.00000E+00 8.85021E-04
 8.50000E+00 9.70774E-04
 9.00000E+00 1.14411E-03
 9.50000E+00 1.38914E-03
 1.00000E+01 1.67599E-03
 1.10000E+01 2.49262E-03
 1.20000E+01 3.30888E-03
 1.30000E+01 3.39630E-03
 1.40000E+01 3.01888E-03
 1.50000E+01 2.66240E-03
 1.60000E+01 2.27771E-03
 1.70000E+01 2.11068E-03
 1.80000E+01 1.71586E-03
 1.90000E+01 1.60758E-03
 2.00000E+01 1.53533E-03
 2.10000E+01 1.36243E-03
 2.20000E+01 1.29151E-03
 2.30000E+01 1.18957E-03
 2.40000E+01 9.96945E-04
 2.50000E+01 9.27452E-04
 2.60000E+01 8.16288E-04
 2.70000E+01 7.42060E-04
 2.80000E+01 6.51550E-04
 2.90000E+01 5.95092E-04
 3.00000E+01 5.60510E-04
