# n + 208Pb: Gamma-ray intensity - 208Pb: Level 12 --> Level  2 - gamma energy    0.927636
# E-initial  =   4.125347 E-final=   3.197711
# E-threshold= 4.14535E+00
# # energies =    67
#    E           xs
 1.00000E-11 0.00000E+00
 2.53000E-08 0.00000E+00
 2.00000E-07 0.00000E+00
 1.00000E-06 0.00000E+00
 1.00000E-03 0.00000E+00
 2.00000E-03 0.00000E+00
 5.00000E-03 0.00000E+00
 1.00000E-02 0.00000E+00
 2.00000E-02 0.00000E+00
 5.00000E-02 0.00000E+00
 1.00000E-01 0.00000E+00
 2.00000E-01 0.00000E+00
 3.00000E-01 0.00000E+00
 4.00000E-01 0.00000E+00
 5.00000E-01 0.00000E+00
 7.50000E-01 0.00000E+00
 1.00000E+00 0.00000E+00
 1.20000E+00 0.00000E+00
 1.40000E+00 0.00000E+00
 1.60000E+00 0.00000E+00
 1.80000E+00 0.00000E+00
 2.00000E+00 0.00000E+00
 2.20000E+00 0.00000E+00
 2.40000E+00 0.00000E+00
 2.60000E+00 0.00000E+00
 2.80000E+00 0.00000E+00
 3.00000E+00 0.00000E+00
 3.20000E+00 0.00000E+00
 3.40000E+00 0.00000E+00
 3.60000E+00 0.00000E+00
 3.80000E+00 0.00000E+00
 4.00000E+00 0.00000E+00
 4.20000E+00 1.47417E+01
 4.40000E+00 3.32340E+01
 4.60000E+00 4.36824E+01
 4.80000E+00 4.92993E+01
 5.00000E+00 5.13785E+01
 5.50000E+00 5.09782E+01
 6.00000E+00 4.96324E+01
 6.50000E+00 4.85827E+01
 7.00000E+00 4.82206E+01
 7.50000E+00 4.87083E+01
 8.00000E+00 4.84555E+01
 8.50000E+00 4.54088E+01
 9.00000E+00 3.94858E+01
 9.50000E+00 3.26547E+01
 1.00000E+01 2.62060E+01
 1.10000E+01 1.68790E+01
 1.20000E+01 1.22287E+01
 1.30000E+01 1.01186E+01
 1.40000E+01 9.06582E+00
 1.50000E+01 8.39918E+00
 1.60000E+01 7.89270E+00
 1.70000E+01 7.51948E+00
 1.80000E+01 7.16825E+00
 1.90000E+01 6.87977E+00
 2.00000E+01 6.60971E+00
 2.10000E+01 6.34275E+00
 2.20000E+01 6.09432E+00
 2.30000E+01 5.83821E+00
 2.40000E+01 5.58740E+00
 2.50000E+01 5.36282E+00
 2.60000E+01 5.15222E+00
 2.70000E+01 4.97646E+00
 2.80000E+01 4.80541E+00
 2.90000E+01 4.65708E+00
 3.00000E+01 4.49068E+00
