# n + 208Pb: Gamma-ray intensity - 209Pb: Level 10 --> Level  4 - gamma energy    0.505780
# E-initial  =   2.538000 E-final=   2.032220
# E-threshold= 0.00000E+00
# # energies =    67
#    E           xs
 1.00000E-11 0.00000E+00
 2.53000E-08 0.00000E+00
 2.00000E-07 0.00000E+00
 1.00000E-06 4.90226E-01
 1.00000E-03 1.72190E-03
 2.00000E-03 1.02796E-03
 5.00000E-03 5.85426E-04
 1.00000E-02 3.67312E-04
 2.00000E-02 2.11786E-04
 5.00000E-02 1.04655E-04
 1.00000E-01 6.55649E-05
 2.00000E-01 4.36718E-05
 3.00000E-01 3.66347E-05
 4.00000E-01 3.39447E-05
 5.00000E-01 3.31988E-05
 7.50000E-01 3.56319E-05
 1.00000E+00 4.16092E-05
 1.20000E+00 4.84059E-05
 1.40000E+00 5.74733E-05
 1.60000E+00 6.80969E-05
 1.80000E+00 8.14472E-05
 2.00000E+00 9.76973E-05
 2.20000E+00 1.16792E-04
 2.40000E+00 1.39258E-04
 2.60000E+00 1.67935E-04
 2.80000E+00 1.55966E-04
 3.00000E+00 1.60514E-04
 3.20000E+00 1.73217E-04
 3.40000E+00 1.85654E-04
 3.60000E+00 2.03021E-04
 3.80000E+00 2.14298E-04
 4.00000E+00 2.30482E-04
 4.20000E+00 2.23500E-04
 4.40000E+00 1.78804E-04
 4.60000E+00 1.55254E-04
 4.80000E+00 1.43905E-04
 5.00000E+00 1.25280E-04
 5.50000E+00 9.27630E-05
 6.00000E+00 6.78504E-05
 6.50000E+00 5.41405E-05
 7.00000E+00 4.39586E-05
 7.50000E+00 4.18593E-05
 8.00000E+00 4.07197E-05
 8.50000E+00 4.20937E-05
 9.00000E+00 4.76245E-05
 9.50000E+00 5.60519E-05
 1.00000E+01 6.50582E-05
 1.10000E+01 9.51541E-05
 1.20000E+01 1.26583E-04
 1.30000E+01 1.26405E-04
 1.40000E+01 1.14426E-04
 1.50000E+01 1.04125E-04
 1.60000E+01 9.12974E-05
 1.70000E+01 8.74374E-05
 1.80000E+01 6.89066E-05
 1.90000E+01 6.65744E-05
 2.00000E+01 6.48865E-05
 2.10000E+01 5.79235E-05
 2.20000E+01 5.55543E-05
 2.30000E+01 5.14002E-05
 2.40000E+01 4.25957E-05
 2.50000E+01 3.96402E-05
 2.60000E+01 3.45547E-05
 2.70000E+01 3.03693E-05
 2.80000E+01 2.55821E-05
 2.90000E+01 2.34661E-05
 3.00000E+01 2.22382E-05
