# n + 208Pb: Gamma-ray intensity - 208Pb: Level 10 --> Level  3 - gamma energy    0.576056
# E-initial  =   4.051134 E-final=   3.475078
# E-threshold= 4.07078E+00
# # energies =    67
#    E           xs
 1.00000E-11 0.00000E+00
 2.53000E-08 0.00000E+00
 2.00000E-07 0.00000E+00
 1.00000E-06 0.00000E+00
 1.00000E-03 0.00000E+00
 2.00000E-03 0.00000E+00
 5.00000E-03 0.00000E+00
 1.00000E-02 0.00000E+00
 2.00000E-02 0.00000E+00
 5.00000E-02 0.00000E+00
 1.00000E-01 0.00000E+00
 2.00000E-01 0.00000E+00
 3.00000E-01 0.00000E+00
 4.00000E-01 0.00000E+00
 5.00000E-01 0.00000E+00
 7.50000E-01 0.00000E+00
 1.00000E+00 0.00000E+00
 1.20000E+00 0.00000E+00
 1.40000E+00 0.00000E+00
 1.60000E+00 0.00000E+00
 1.80000E+00 0.00000E+00
 2.00000E+00 0.00000E+00
 2.20000E+00 0.00000E+00
 2.40000E+00 0.00000E+00
 2.60000E+00 0.00000E+00
 2.80000E+00 0.00000E+00
 3.00000E+00 0.00000E+00
 3.20000E+00 0.00000E+00
 3.40000E+00 0.00000E+00
 3.60000E+00 0.00000E+00
 3.80000E+00 0.00000E+00
 4.00000E+00 0.00000E+00
 4.20000E+00 8.80701E+00
 4.40000E+00 1.39127E+01
 4.60000E+00 1.59198E+01
 4.80000E+00 1.63805E+01
 5.00000E+00 1.59564E+01
 5.50000E+00 1.41399E+01
 6.00000E+00 1.26817E+01
 6.50000E+00 1.14709E+01
 7.00000E+00 1.05520E+01
 7.50000E+00 9.92017E+00
 8.00000E+00 8.70431E+00
 8.50000E+00 7.04122E+00
 9.00000E+00 5.45268E+00
 9.50000E+00 3.98408E+00
 1.00000E+01 2.87266E+00
 1.10000E+01 1.55642E+00
 1.20000E+01 9.63411E-01
 1.30000E+01 7.28661E-01
 1.40000E+01 6.12884E-01
 1.50000E+01 5.51640E-01
 1.60000E+01 5.04237E-01
 1.70000E+01 4.70853E-01
 1.80000E+01 4.48807E-01
 1.90000E+01 4.21992E-01
 2.00000E+01 4.05879E-01
 2.10000E+01 3.80681E-01
 2.20000E+01 3.66754E-01
 2.30000E+01 3.43380E-01
 2.40000E+01 3.27125E-01
 2.50000E+01 3.13321E-01
 2.60000E+01 3.00147E-01
 2.70000E+01 2.83653E-01
 2.80000E+01 2.73507E-01
 2.90000E+01 2.67299E-01
 3.00000E+01 2.58197E-01
