# n + 208Pb: Gamma-ray intensity - 208Pb: Level 15 --> Level  4 - gamma energy    0.497826
# E-initial  =   4.206277 E-final=   3.708451
# E-threshold= 4.22668E+00
# # energies =    67
#    E           xs
 1.00000E-11 0.00000E+00
 2.53000E-08 0.00000E+00
 2.00000E-07 0.00000E+00
 1.00000E-06 0.00000E+00
 1.00000E-03 0.00000E+00
 2.00000E-03 0.00000E+00
 5.00000E-03 0.00000E+00
 1.00000E-02 0.00000E+00
 2.00000E-02 0.00000E+00
 5.00000E-02 0.00000E+00
 1.00000E-01 0.00000E+00
 2.00000E-01 0.00000E+00
 3.00000E-01 0.00000E+00
 4.00000E-01 0.00000E+00
 5.00000E-01 0.00000E+00
 7.50000E-01 0.00000E+00
 1.00000E+00 0.00000E+00
 1.20000E+00 0.00000E+00
 1.40000E+00 0.00000E+00
 1.60000E+00 0.00000E+00
 1.80000E+00 0.00000E+00
 2.00000E+00 0.00000E+00
 2.20000E+00 0.00000E+00
 2.40000E+00 0.00000E+00
 2.60000E+00 0.00000E+00
 2.80000E+00 0.00000E+00
 3.00000E+00 0.00000E+00
 3.20000E+00 0.00000E+00
 3.40000E+00 0.00000E+00
 3.60000E+00 0.00000E+00
 3.80000E+00 0.00000E+00
 4.00000E+00 0.00000E+00
 4.20000E+00 0.00000E+00
 4.40000E+00 3.03397E+00
 4.60000E+00 4.53217E+00
 4.80000E+00 5.59164E+00
 5.00000E+00 6.30547E+00
 5.50000E+00 7.30962E+00
 6.00000E+00 8.12453E+00
 6.50000E+00 9.01121E+00
 7.00000E+00 9.98868E+00
 7.50000E+00 1.10630E+01
 8.00000E+00 1.20290E+01
 8.50000E+00 1.24246E+01
 9.00000E+00 1.17390E+01
 9.50000E+00 1.01778E+01
 1.00000E+01 8.21625E+00
 1.10000E+01 4.78882E+00
 1.20000E+01 2.73854E+00
 1.30000E+01 1.80210E+00
 1.40000E+01 1.39615E+00
 1.50000E+01 1.20511E+00
 1.60000E+01 1.10547E+00
 1.70000E+01 1.05234E+00
 1.80000E+01 9.84524E-01
 1.90000E+01 9.28029E-01
 2.00000E+01 8.75807E-01
 2.10000E+01 8.26596E-01
 2.20000E+01 7.97252E-01
 2.30000E+01 7.52256E-01
 2.40000E+01 7.03597E-01
 2.50000E+01 6.62580E-01
 2.60000E+01 6.29251E-01
 2.70000E+01 5.80607E-01
 2.80000E+01 5.55817E-01
 2.90000E+01 5.37583E-01
 3.00000E+01 4.88350E-01
