# n + 208Pb: Gamma-ray intensity - 208Pb: Level  7 --> Level  4 - gamma energy    0.252711
# E-initial  =   3.961162 E-final=   3.708451
# E-threshold= 3.98037E+00
# # energies =    67
#    E           xs
 1.00000E-11 0.00000E+00
 2.53000E-08 0.00000E+00
 2.00000E-07 0.00000E+00
 1.00000E-06 0.00000E+00
 1.00000E-03 0.00000E+00
 2.00000E-03 0.00000E+00
 5.00000E-03 0.00000E+00
 1.00000E-02 0.00000E+00
 2.00000E-02 0.00000E+00
 5.00000E-02 0.00000E+00
 1.00000E-01 0.00000E+00
 2.00000E-01 0.00000E+00
 3.00000E-01 0.00000E+00
 4.00000E-01 0.00000E+00
 5.00000E-01 0.00000E+00
 7.50000E-01 0.00000E+00
 1.00000E+00 0.00000E+00
 1.20000E+00 0.00000E+00
 1.40000E+00 0.00000E+00
 1.60000E+00 0.00000E+00
 1.80000E+00 0.00000E+00
 2.00000E+00 0.00000E+00
 2.20000E+00 0.00000E+00
 2.40000E+00 0.00000E+00
 2.60000E+00 0.00000E+00
 2.80000E+00 0.00000E+00
 3.00000E+00 0.00000E+00
 3.20000E+00 0.00000E+00
 3.40000E+00 0.00000E+00
 3.60000E+00 0.00000E+00
 3.80000E+00 0.00000E+00
 4.00000E+00 3.94021E+00
 4.20000E+00 1.36156E+01
 4.40000E+00 1.83332E+01
 4.60000E+00 2.10016E+01
 4.80000E+00 2.26539E+01
 5.00000E+00 2.34780E+01
 5.50000E+00 2.36558E+01
 6.00000E+00 2.30172E+01
 6.50000E+00 2.23132E+01
 7.00000E+00 2.19734E+01
 7.50000E+00 2.20750E+01
 8.00000E+00 2.17631E+01
 8.50000E+00 2.00396E+01
 9.00000E+00 1.69784E+01
 9.50000E+00 1.35296E+01
 1.00000E+01 1.03286E+01
 1.10000E+01 5.78175E+00
 1.20000E+01 3.57020E+00
 1.30000E+01 2.61011E+00
 1.40000E+01 2.17901E+00
 1.50000E+01 1.95084E+00
 1.60000E+01 1.79808E+00
 1.70000E+01 1.69781E+00
 1.80000E+01 1.59391E+00
 1.90000E+01 1.50920E+00
 2.00000E+01 1.43391E+00
 2.10000E+01 1.36061E+00
 2.20000E+01 1.29976E+00
 2.30000E+01 1.23463E+00
 2.40000E+01 1.16755E+00
 2.50000E+01 1.10843E+00
 2.60000E+01 1.05235E+00
 2.70000E+01 1.00593E+00
 2.80000E+01 9.63088E-01
 2.90000E+01 9.30588E-01
 3.00000E+01 8.88776E-01
