# n + 208Pb: Gamma-ray intensity - 208Pb: Level 18 --> Level  2 - gamma energy    1.064160
# E-initial  =   4.261871 E-final=   3.197711
# E-threshold= 4.28254E+00
# # energies =    67
#    E           xs
 1.00000E-11 0.00000E+00
 2.53000E-08 0.00000E+00
 2.00000E-07 0.00000E+00
 1.00000E-06 0.00000E+00
 1.00000E-03 0.00000E+00
 2.00000E-03 0.00000E+00
 5.00000E-03 0.00000E+00
 1.00000E-02 0.00000E+00
 2.00000E-02 0.00000E+00
 5.00000E-02 0.00000E+00
 1.00000E-01 0.00000E+00
 2.00000E-01 0.00000E+00
 3.00000E-01 0.00000E+00
 4.00000E-01 0.00000E+00
 5.00000E-01 0.00000E+00
 7.50000E-01 0.00000E+00
 1.00000E+00 0.00000E+00
 1.20000E+00 0.00000E+00
 1.40000E+00 0.00000E+00
 1.60000E+00 0.00000E+00
 1.80000E+00 0.00000E+00
 2.00000E+00 0.00000E+00
 2.20000E+00 0.00000E+00
 2.40000E+00 0.00000E+00
 2.60000E+00 0.00000E+00
 2.80000E+00 0.00000E+00
 3.00000E+00 0.00000E+00
 3.20000E+00 0.00000E+00
 3.40000E+00 0.00000E+00
 3.60000E+00 0.00000E+00
 3.80000E+00 0.00000E+00
 4.00000E+00 0.00000E+00
 4.20000E+00 0.00000E+00
 4.40000E+00 6.55310E-01
 4.60000E+00 1.13549E+00
 4.80000E+00 1.41589E+00
 5.00000E+00 1.52329E+00
 5.50000E+00 1.45024E+00
 6.00000E+00 1.30836E+00
 6.50000E+00 1.18960E+00
 7.00000E+00 1.09182E+00
 7.50000E+00 1.02525E+00
 8.00000E+00 9.33112E-01
 8.50000E+00 7.88225E-01
 9.00000E+00 6.23795E-01
 9.50000E+00 4.66152E-01
 1.00000E+01 3.35825E-01
 1.10000E+01 1.70423E-01
 1.20000E+01 9.58858E-02
 1.30000E+01 6.49637E-02
 1.40000E+01 5.10166E-02
 1.50000E+01 4.42661E-02
 1.60000E+01 3.98157E-02
 1.70000E+01 3.71353E-02
 1.80000E+01 3.45724E-02
 1.90000E+01 3.25820E-02
 2.00000E+01 3.08226E-02
 2.10000E+01 2.89861E-02
 2.20000E+01 2.77114E-02
 2.30000E+01 2.60535E-02
 2.40000E+01 2.44017E-02
 2.50000E+01 2.31386E-02
 2.60000E+01 2.16327E-02
 2.70000E+01 2.06348E-02
 2.80000E+01 1.94782E-02
 2.90000E+01 1.88700E-02
 3.00000E+01 1.78476E-02
